# Region type : patch outlet
# Faces  :      624
# Area   :      4.50063861e-02
# Time          	average(T)
0               	9.00000000e+02
1.19904e-05     	9.00000160e+02
2.63616e-05     	9.00000300e+02
4.35873e-05     	9.00000465e+02
6.42437e-05     	9.00000653e+02
8.90212e-05     	9.00000861e+02
0.000118695     	9.00001092e+02
0.000154239     	9.00001342e+02
0.000196861     	9.00001598e+02
0.000247919     	9.00001827e+02
0.00030887      	9.00001915e+02
0.000381736     	9.00001390e+02
0.000469174     	8.99999182e+02
0.000573909     	8.99994672e+02
0.00069959      	8.99989798e+02
0.000849596     	8.99988408e+02
0.00102557      	8.99992215e+02
0.001225        	8.99999503e+02
0.00145         	9.00007923e+02
0.00170147      	9.00015561e+02
0.00197809      	9.00021106e+02
0.0022547       	9.00024215e+02
0.00253132      	9.00025814e+02
0.00280794      	9.00026754e+02
0.00308456      	9.00027544e+02
0.00336117      	9.00028377e+02
0.00363779      	9.00029267e+02
0.00391441      	9.00030174e+02
0.00419103      	9.00031060e+02
0.00446765      	9.00031906e+02
0.00474426      	9.00032707e+02
0.00502088      	9.00033467e+02
0.0052975       	9.00034190e+02
0.00557412      	9.00034883e+02
0.00585073      	9.00035550e+02
0.00612735      	9.00036194e+02
0.00640397      	9.00036818e+02
0.00668059      	9.00037426e+02
0.00695721      	9.00038018e+02
0.00721077      	9.00038549e+02
0.00746434      	9.00039072e+02
0.0077179       	9.00039586e+02
0.00797147      	9.00040092e+02
0.00822504      	9.00040592e+02
0.0084786       	9.00041085e+02
0.00873217      	9.00041573e+02
0.00898574      	9.00042056e+02
0.0092393       	9.00042534e+02
0.00949287      	9.00043008e+02
0.00974643      	9.00043479e+02
0.01            	9.00043946e+02
0.0102703       	9.00044441e+02
0.0105405       	9.00044934e+02
0.0108108       	9.00045423e+02
0.0110811       	9.00045911e+02
0.0113514       	9.00046396e+02
0.0116216       	9.00046881e+02
0.0118919       	9.00047364e+02
0.0121622       	9.00047846e+02
0.0124324       	9.00048328e+02
0.0127027       	9.00048810e+02
0.012973        	9.00049291e+02
0.0132432       	9.00049772e+02
0.0135135       	9.00050253e+02
0.0137838       	9.00050735e+02
0.0140541       	9.00051217e+02
0.0143243       	9.00051700e+02
0.0145946       	9.00052183e+02
0.0148649       	9.00052668e+02
0.0151351       	9.00053153e+02
0.0154054       	9.00053640e+02
0.0156757       	9.00054128e+02
0.0159459       	9.00054618e+02
0.0162162       	9.00055108e+02
0.0164865       	9.00055601e+02
0.0167568       	9.00056094e+02
0.017027        	9.00056590e+02
0.0172973       	9.00057087e+02
0.0175676       	9.00057585e+02
0.0178378       	9.00058085e+02
0.0181081       	9.00058587e+02
0.0183784       	9.00059091e+02
0.0186486       	9.00059596e+02
0.0189189       	9.00060103e+02
0.0191892       	9.00060612e+02
0.0194595       	9.00061123e+02
0.0197297       	9.00061635e+02
0.02            	9.00062149e+02
0.0202703       	9.00062665e+02
0.0205405       	9.00063182e+02
0.0208108       	9.00063701e+02
0.0210811       	9.00064221e+02
0.0213514       	9.00064743e+02
0.0216216       	9.00065267e+02
0.0218919       	9.00065791e+02
0.0221622       	9.00066318e+02
0.0224324       	9.00066845e+02
0.0227027       	9.00067373e+02
0.022973        	9.00067902e+02
0.0232432       	9.00068431e+02
0.0235135       	9.00068962e+02
0.0237838       	9.00069493e+02
0.0240541       	9.00070024e+02
0.0243243       	9.00070556e+02
0.0245946       	9.00071087e+02
0.0248649       	9.00071619e+02
0.0251351       	9.00072151e+02
0.0254054       	9.00072683e+02
0.0256757       	9.00073214e+02
0.0259459       	9.00073745e+02
0.0262162       	9.00074275e+02
0.0264865       	9.00074805e+02
0.0267568       	9.00075333e+02
0.027027        	9.00075861e+02
0.0272973       	9.00076387e+02
0.0275676       	9.00076912e+02
0.0278378       	9.00077435e+02
0.0281081       	9.00077956e+02
0.0283784       	9.00078476e+02
0.0286486       	9.00078994e+02
0.0289189       	9.00079509e+02
0.0291892       	9.00080022e+02
0.0294595       	9.00080532e+02
0.0297297       	9.00081040e+02
0.03            	9.00081545e+02
0.0302632       	9.00082033e+02
0.0305263       	9.00082519e+02
0.0307895       	9.00083001e+02
0.0310526       	9.00083480e+02
0.0313158       	9.00083955e+02
0.0315789       	9.00084427e+02
0.0318421       	9.00084895e+02
0.0321053       	9.00085358e+02
0.0323684       	9.00085818e+02
0.0326316       	9.00086273e+02
0.0328947       	9.00086723e+02
0.0331579       	9.00087169e+02
0.0334211       	9.00087609e+02
0.0336842       	9.00088044e+02
0.0339474       	9.00088474e+02
0.0342105       	9.00088898e+02
0.0344737       	9.00089315e+02
0.0347368       	9.00089727e+02
0.035           	9.00090132e+02
0.0352632       	9.00090530e+02
0.0355263       	9.00090921e+02
0.0357895       	9.00091305e+02
0.0360526       	9.00091680e+02
0.0363158       	9.00092047e+02
0.0365789       	9.00092406e+02
0.0368421       	9.00092756e+02
0.0371053       	9.00093097e+02
0.0373684       	9.00093429e+02
0.0376316       	9.00093753e+02
0.0378947       	9.00094067e+02
0.0381579       	9.00094371e+02
0.0384211       	9.00094666e+02
0.0386842       	9.00094951e+02
0.0389474       	9.00095227e+02
0.0392105       	9.00095494e+02
0.0394737       	9.00095751e+02
0.0397368       	9.00095999e+02
0.04            	9.00096238e+02
0.0402632       	9.00096468e+02
0.0405263       	9.00096689e+02
0.0407895       	9.00096900e+02
0.0410526       	9.00097100e+02
0.0413158       	9.00097291e+02
0.0415789       	9.00097473e+02
0.0418421       	9.00097645e+02
0.0421053       	9.00097810e+02
0.0423684       	9.00097968e+02
0.0426316       	9.00098119e+02
0.0428947       	9.00098264e+02
0.0431579       	9.00098402e+02
0.0434211       	9.00098533e+02
0.0436842       	9.00098659e+02
0.0439474       	9.00098778e+02
0.0442105       	9.00098890e+02
0.0444737       	9.00098997e+02
0.0447368       	9.00099098e+02
0.045           	9.00099193e+02
0.0452632       	9.00099283e+02
0.0455263       	9.00099367e+02
0.0457895       	9.00099448e+02
0.0460526       	9.00099525e+02
0.0463158       	9.00099599e+02
0.0465789       	9.00099672e+02
0.0468421       	9.00099743e+02
0.0471053       	9.00099813e+02
0.0473684       	9.00099881e+02
0.0476316       	9.00099949e+02
0.0478947       	9.00100016e+02
0.0481579       	9.00100082e+02
0.0484211       	9.00100150e+02
0.0486842       	9.00100221e+02
0.0489474       	9.00100295e+02
0.0492105       	9.00100373e+02
0.0494737       	9.00100454e+02
0.0497368       	9.00100539e+02
0.05            	9.00100628e+02
