# Region type : patch outerWalls
# Faces  :      2160
# Area   :      6.02416123e-01
# Time          	max(T)
0               	9.00000000e+02
1.19904e-05     	9.00014561e+02
2.63616e-05     	9.00017401e+02
4.35873e-05     	9.00016158e+02
6.42437e-05     	9.00025006e+02
8.90212e-05     	9.00052647e+02
0.000118695     	9.00081243e+02
0.000154239     	9.00094376e+02
0.000196861     	9.00088382e+02
0.000247919     	9.00081744e+02
0.00030887      	9.00075650e+02
0.000381736     	9.00074687e+02
0.000469174     	9.00086765e+02
0.000573909     	9.00094728e+02
0.00069959      	9.00090255e+02
0.000849596     	9.00079947e+02
0.00102557      	9.00072023e+02
0.001225        	9.00068173e+02
0.00145         	9.00067300e+02
0.00170147      	9.00067063e+02
0.00197809      	9.00066945e+02
0.0022547       	9.00066434e+02
0.00253132      	9.00066256e+02
0.00280794      	9.00066061e+02
0.00308456      	9.00065772e+02
0.00336117      	9.00065114e+02
0.00363779      	9.00064828e+02
0.00391441      	9.00064522e+02
0.00419103      	9.00064198e+02
0.00446765      	9.00063823e+02
0.00474426      	9.00063406e+02
0.00502088      	9.00063168e+02
0.0052975       	9.00062935e+02
0.00557412      	9.00062674e+02
0.00585073      	9.00062383e+02
0.00612735      	9.00062294e+02
0.00640397      	9.00062132e+02
0.00668059      	9.00062015e+02
0.00695721      	9.00061939e+02
0.00721077      	9.00062015e+02
0.00746434      	9.00062049e+02
0.0077179       	9.00062039e+02
0.00797147      	9.00062018e+02
0.00822504      	9.00062136e+02
0.0084786       	9.00062257e+02
0.00873217      	9.00062365e+02
0.00898574      	9.00062584e+02
0.0092393       	9.00062831e+02
0.00949287      	9.00063051e+02
0.00974643      	9.00063238e+02
0.01            	9.00063408e+02
0.0102703       	9.00063578e+02
0.0105405       	9.00063825e+02
0.0108108       	9.00064123e+02
0.0110811       	9.00064405e+02
0.0113514       	9.00064775e+02
0.0116216       	9.00065165e+02
0.0118919       	9.00065543e+02
0.0121622       	9.00065893e+02
0.0124324       	9.00066224e+02
0.0127027       	9.00066667e+02
0.012973        	9.00067100e+02
0.0132432       	9.00067516e+02
0.0135135       	9.00067912e+02
0.0137838       	9.00068279e+02
0.0140541       	9.00068752e+02
0.0143243       	9.00069221e+02
0.0145946       	9.00069668e+02
0.0148649       	9.00070100e+02
0.0151351       	9.00070511e+02
0.0154054       	9.00071009e+02
0.0156757       	9.00071495e+02
0.0159459       	9.00071963e+02
0.0162162       	9.00072412e+02
0.0164865       	9.00072919e+02
0.0167568       	9.00073427e+02
0.017027        	9.00073922e+02
0.0172973       	9.00074396e+02
0.0175676       	9.00074850e+02
0.0178378       	9.00075301e+02
0.0181081       	9.00075820e+02
0.0183784       	9.00076355e+02
0.0186486       	9.00076885e+02
0.0189189       	9.00077408e+02
0.0191892       	9.00077920e+02
0.0194595       	9.00078422e+02
0.0197297       	9.00078910e+02
0.02            	9.00079381e+02
0.0202703       	9.00079831e+02
0.0205405       	9.00080254e+02
0.0208108       	9.00080646e+02
0.0210811       	9.00081003e+02
0.0213514       	9.00081319e+02
0.0216216       	9.00081724e+02
0.0218919       	9.00082124e+02
0.0221622       	9.00082512e+02
0.0224324       	9.00082959e+02
0.0227027       	9.00083386e+02
0.022973        	9.00083793e+02
0.0232432       	9.00084178e+02
0.0235135       	9.00084569e+02
0.0237838       	9.00084986e+02
0.0240541       	9.00085387e+02
0.0243243       	9.00085767e+02
0.0245946       	9.00086125e+02
0.0248649       	9.00086457e+02
0.0251351       	9.00086800e+02
0.0254054       	9.00087177e+02
0.0256757       	9.00087534e+02
0.0259459       	9.00087869e+02
0.0262162       	9.00088199e+02
0.0264865       	9.00088746e+02
0.0267568       	9.00089290e+02
0.027027        	9.00089832e+02
0.0272973       	9.00090371e+02
0.0275676       	9.00090908e+02
0.0278378       	9.00091441e+02
0.0281081       	9.00091972e+02
0.0283784       	9.00092500e+02
0.0286486       	9.00093026e+02
0.0289189       	9.00093549e+02
0.0291892       	9.00094068e+02
0.0294595       	9.00094584e+02
0.0297297       	9.00095097e+02
0.03            	9.00095607e+02
0.0302632       	9.00096100e+02
0.0305263       	9.00096589e+02
0.0307895       	9.00097075e+02
0.0310526       	9.00097556e+02
0.0313158       	9.00098035e+02
0.0315789       	9.00098510e+02
0.0318421       	9.00098980e+02
0.0321053       	9.00099444e+02
0.0323684       	9.00099905e+02
0.0326316       	9.00100362e+02
0.0328947       	9.00100814e+02
0.0331579       	9.00101263e+02
0.0334211       	9.00101705e+02
0.0336842       	9.00102143e+02
0.0339474       	9.00102576e+02
0.0342105       	9.00103004e+02
0.0344737       	9.00103424e+02
0.0347368       	9.00103840e+02
0.035           	9.00104248e+02
0.0352632       	9.00104650e+02
0.0355263       	9.00105049e+02
0.0357895       	9.00105440e+02
0.0360526       	9.00105822e+02
0.0363158       	9.00106196e+02
0.0365789       	9.00106562e+02
0.0368421       	9.00106918e+02
0.0371053       	9.00107265e+02
0.0373684       	9.00107604e+02
0.0376316       	9.00107936e+02
0.0378947       	9.00108256e+02
0.0381579       	9.00108566e+02
0.0384211       	9.00108866e+02
0.0386842       	9.00109154e+02
0.0389474       	9.00109436e+02
0.0392105       	9.00109707e+02
0.0394737       	9.00109967e+02
0.0397368       	9.00110217e+02
0.04            	9.00110454e+02
0.0402632       	9.00110682e+02
0.0405263       	9.00110903e+02
0.0407895       	9.00111113e+02
0.0410526       	9.00111312e+02
0.0413158       	9.00111498e+02
0.0415789       	9.00111672e+02
0.0418421       	9.00111838e+02
0.0421053       	9.00111994e+02
0.0423684       	9.00112139e+02
0.0426316       	9.00112273e+02
0.0428947       	9.00112396e+02
0.0431579       	9.00112509e+02
0.0434211       	9.00112618e+02
0.0436842       	9.00112718e+02
0.0439474       	9.00112808e+02
0.0442105       	9.00112889e+02
0.0444737       	9.00112960e+02
0.0447368       	9.00113027e+02
0.045           	9.00113086e+02
0.0452632       	9.00113135e+02
0.0455263       	9.00113176e+02
0.0457895       	9.00113210e+02
0.0460526       	9.00113238e+02
0.0463158       	9.00113264e+02
0.0465789       	9.00113285e+02
0.0468421       	9.00113301e+02
0.0471053       	9.00113313e+02
0.0473684       	9.00113326e+02
0.0476316       	9.00113337e+02
0.0478947       	9.00113347e+02
0.0481579       	9.00113355e+02
0.0484211       	9.00113362e+02
0.0486842       	9.00113368e+02
0.0489474       	9.00113380e+02
0.0492105       	9.00113396e+02
0.0494737       	9.00113414e+02
0.0497368       	9.00113443e+02
0.05            	9.00113479e+02
