# Region type : patch outlet
# Faces  :    121
# Area   :    4.800000e-04
# Time        	average(T)
0             	3.000000e+02
1.19904e-05   	3.000290e+02
2.63616e-05   	3.000612e+02
4.35873e-05   	3.000980e+02
6.42437e-05   	3.001413e+02
8.90212e-05   	3.001932e+02
0.000118695   	3.002562e+02
0.000154239   	3.003333e+02
0.000196861   	3.004285e+02
0.000247919   	3.005460e+02
0.00030887    	3.006904e+02
0.000381736   	3.008675e+02
0.000469174   	3.010857e+02
0.000573909   	3.013551e+02
0.000697936   	3.016889e+02
0.000841045   	3.021012e+02
0.000993694   	3.025796e+02
0.00111066    	3.029728e+02
0.00121167    	3.033309e+02
0.00130517    	3.036774e+02
0.00139669    	3.040307e+02
0.00148822    	3.043994e+02
0.00157974    	3.047862e+02
0.0016733     	3.052053e+02
0.00176901    	3.056644e+02
0.001867      	3.061711e+02
0.0019674     	3.067302e+02
0.00206908    	3.073334e+02
0.00217208    	3.079718e+02
0.00227645    	3.086302e+02
0.00238083    	3.092810e+02
0.0024852     	3.099055e+02
0.00258957    	3.104883e+02
0.00269543    	3.110256e+02
0.0028013     	3.115049e+02
0.00290716    	3.119273e+02
0.00301302    	3.122979e+02
0.00312052    	3.126296e+02
0.00322801    	3.129259e+02
0.00333723    	3.131993e+02
0.00344646    	3.134528e+02
0.00355568    	3.136923e+02
0.00366679    	3.139262e+02
0.0037779     	3.141536e+02
0.00388901    	3.143765e+02
0.00400012    	3.145963e+02
0.00411333    	3.148176e+02
0.00422653    	3.150368e+02
0.00433974    	3.152546e+02
0.00445294    	3.154722e+02
0.00456615    	3.156898e+02
0.00468176    	3.159122e+02
0.00479737    	3.161347e+02
0.00491299    	3.163568e+02
0.0050286     	3.165786e+02
0.00514422    	3.167998e+02
0.00525983    	3.170203e+02
0.00537833    	3.172453e+02
0.00549684    	3.174691e+02
0.00561534    	3.176913e+02
0.00573385    	3.179116e+02
0.00585235    	3.181300e+02
0.00597086    	3.183462e+02
0.00608936    	3.185600e+02
0.00620786    	3.187714e+02
0.00632637    	3.189803e+02
0.00644487    	3.191869e+02
0.00656338    	3.193910e+02
0.00668188    	3.195928e+02
0.00680039    	3.197925e+02
0.00691889    	3.199902e+02
0.00703739    	3.201860e+02
0.0071559     	3.203799e+02
0.0072744     	3.205716e+02
0.00739291    	3.207611e+02
0.00751141    	3.209480e+02
0.00762991    	3.211321e+02
0.00774842    	3.213130e+02
0.00786692    	3.214904e+02
0.00798543    	3.216639e+02
0.00810393    	3.218332e+02
0.00822244    	3.219979e+02
0.00834094    	3.221576e+02
0.00845944    	3.223122e+02
0.00857795    	3.224615e+02
0.00869645    	3.226054e+02
0.00881496    	3.227438e+02
0.00893346    	3.228769e+02
0.00905197    	3.230048e+02
0.00917047    	3.231276e+02
0.00928897    	3.232460e+02
0.00940748    	3.233602e+02
0.00952598    	3.234708e+02
0.00964449    	3.235787e+02
0.00976299    	3.236843e+02
0.0098815     	3.237879e+02
0.01          	3.238901e+02
0.0101205     	3.239930e+02
0.010241      	3.240956e+02
0.0103614     	3.241983e+02
0.0104819     	3.243014e+02
0.0106024     	3.244052e+02
0.0107229     	3.245098e+02
0.0108434     	3.246156e+02
0.0109639     	3.247231e+02
0.0110843     	3.248333e+02
0.0112048     	3.249465e+02
0.0113253     	3.250630e+02
0.0114458     	3.251828e+02
0.0115663     	3.253058e+02
0.0116867     	3.254316e+02
0.0118072     	3.255601e+02
0.0119277     	3.256910e+02
0.0120482     	3.258239e+02
0.0121687     	3.259585e+02
0.0122892     	3.260946e+02
0.0124096     	3.262319e+02
0.0125301     	3.263703e+02
0.0126506     	3.265096e+02
0.0127711     	3.266495e+02
0.0128916     	3.267899e+02
0.013012      	3.269306e+02
0.0131325     	3.270714e+02
0.013253      	3.272122e+02
0.0133735     	3.273529e+02
0.013494      	3.274934e+02
0.0136145     	3.276336e+02
0.0137349     	3.277734e+02
0.0138554     	3.279128e+02
0.0139759     	3.280517e+02
0.0140964     	3.281900e+02
0.0142169     	3.283277e+02
0.0143373     	3.284648e+02
0.0144578     	3.286012e+02
0.0145783     	3.287369e+02
0.0146988     	3.288719e+02
0.0148193     	3.290061e+02
0.0149398     	3.291396e+02
0.0150602     	3.292724e+02
0.0151807     	3.294043e+02
0.0153012     	3.295354e+02
0.0154217     	3.296657e+02
0.0155422     	3.297952e+02
0.0156627     	3.299239e+02
0.0157831     	3.300517e+02
0.0159036     	3.301786e+02
0.0160241     	3.303048e+02
0.0161446     	3.304300e+02
0.0162651     	3.305544e+02
0.0163855     	3.306780e+02
0.016506      	3.308007e+02
0.0166265     	3.309225e+02
0.016747      	3.310437e+02
0.0168675     	3.311641e+02
0.016988      	3.312839e+02
0.0171084     	3.314031e+02
0.0172289     	3.315217e+02
0.0173494     	3.316397e+02
0.0174699     	3.317572e+02
0.0175904     	3.318742e+02
0.0177108     	3.319905e+02
0.0178313     	3.321064e+02
0.0179518     	3.322217e+02
0.0180723     	3.323364e+02
0.0181928     	3.324507e+02
0.0183133     	3.325644e+02
0.0184337     	3.326775e+02
0.0185542     	3.327902e+02
0.0186747     	3.329023e+02
0.0187952     	3.330138e+02
0.0189157     	3.331249e+02
0.0190361     	3.332355e+02
0.0191566     	3.333455e+02
0.0192771     	3.334551e+02
0.0193976     	3.335641e+02
0.0195181     	3.336727e+02
0.0196386     	3.337809e+02
0.019759      	3.338885e+02
0.0198795     	3.339958e+02
0.02          	3.341026e+02
0.020122      	3.342102e+02
0.0202439     	3.343174e+02
0.0203659     	3.344242e+02
0.0204878     	3.345305e+02
0.0206098     	3.346365e+02
0.0207317     	3.347420e+02
0.0208537     	3.348471e+02
0.0209756     	3.349518e+02
0.0210976     	3.350562e+02
0.0212195     	3.351601e+02
0.0213415     	3.352637e+02
0.0214634     	3.353669e+02
0.0215854     	3.354697e+02
0.0217073     	3.355722e+02
0.0218293     	3.356742e+02
0.0219512     	3.357759e+02
0.0220732     	3.358772e+02
0.0221951     	3.359782e+02
0.0223171     	3.360788e+02
0.022439      	3.361791e+02
0.022561      	3.362790e+02
0.0226829     	3.363785e+02
0.0228049     	3.364777e+02
0.0229268     	3.365766e+02
0.0230488     	3.366751e+02
0.0231707     	3.367733e+02
0.0232927     	3.368711e+02
0.0234146     	3.369686e+02
0.0235366     	3.370657e+02
0.0236585     	3.371624e+02
0.0237805     	3.372587e+02
0.0239024     	3.373546e+02
0.0240244     	3.374502e+02
0.0241463     	3.375453e+02
0.0242683     	3.376400e+02
0.0243902     	3.377342e+02
0.0245122     	3.378281e+02
0.0246341     	3.379215e+02
0.0247561     	3.380145e+02
0.024878      	3.381069e+02
0.025         	3.381989e+02
0.025122      	3.382903e+02
0.0252439     	3.383812e+02
0.0253659     	3.384716e+02
0.0254878     	3.385614e+02
0.0256098     	3.386507e+02
0.0257317     	3.387395e+02
0.0258537     	3.388278e+02
0.0259756     	3.389156e+02
0.0260976     	3.390028e+02
0.0262195     	3.390894e+02
0.0263415     	3.391752e+02
0.0264634     	3.392603e+02
0.0265854     	3.393447e+02
0.0267073     	3.394283e+02
0.0268293     	3.395112e+02
0.0269512     	3.395933e+02
0.0270732     	3.396747e+02
0.0271951     	3.397554e+02
0.0273171     	3.398353e+02
0.027439      	3.399146e+02
0.027561      	3.399930e+02
0.0276829     	3.400707e+02
0.0278049     	3.401476e+02
0.0279268     	3.402238e+02
0.0280488     	3.402992e+02
0.0281707     	3.403740e+02
0.0282927     	3.404483e+02
0.0284146     	3.405219e+02
0.0285366     	3.405952e+02
0.0286585     	3.406679e+02
0.0287805     	3.407402e+02
0.0289024     	3.408121e+02
0.0290244     	3.408834e+02
0.0291463     	3.409540e+02
0.0292683     	3.410240e+02
0.0293902     	3.410931e+02
0.0295122     	3.411615e+02
0.0296341     	3.412290e+02
0.0297561     	3.412956e+02
0.029878      	3.413613e+02
0.03          	3.414260e+02
0.0301235     	3.414904e+02
0.0302469     	3.415537e+02
0.0303704     	3.416159e+02
0.0304938     	3.416770e+02
0.0306173     	3.417371e+02
0.0307407     	3.417962e+02
0.0308642     	3.418544e+02
0.0309877     	3.419116e+02
0.0311111     	3.419680e+02
0.0312346     	3.420235e+02
0.031358      	3.420783e+02
0.0314815     	3.421325e+02
0.0316049     	3.421860e+02
0.0317284     	3.422389e+02
0.0318519     	3.422913e+02
0.0319753     	3.423432e+02
0.0320988     	3.423947e+02
0.0322222     	3.424458e+02
0.0323457     	3.424964e+02
0.0324691     	3.425466e+02
0.0325926     	3.425967e+02
0.032716      	3.426466e+02
0.0328395     	3.426965e+02
0.032963      	3.427465e+02
0.0330864     	3.427962e+02
0.0332099     	3.428454e+02
0.0333333     	3.428943e+02
0.0334568     	3.429431e+02
0.0335802     	3.429920e+02
0.0337037     	3.430411e+02
0.0338272     	3.430906e+02
0.0339506     	3.431404e+02
0.0340741     	3.431901e+02
0.0341975     	3.432402e+02
0.034321      	3.432907e+02
0.0344444     	3.433419e+02
0.0345679     	3.433937e+02
0.0346914     	3.434461e+02
0.0348148     	3.434997e+02
0.0349383     	3.435548e+02
0.0350617     	3.436116e+02
0.0351852     	3.436696e+02
0.0353086     	3.437288e+02
0.0354321     	3.437892e+02
0.0355556     	3.438511e+02
0.035679      	3.439147e+02
0.0358025     	3.439804e+02
0.0359259     	3.440482e+02
0.0360494     	3.441180e+02
0.0361728     	3.441898e+02
0.0362963     	3.442638e+02
0.0364198     	3.443400e+02
0.0365432     	3.444184e+02
0.0366667     	3.444994e+02
0.0367901     	3.445830e+02
0.0369136     	3.446700e+02
0.037037      	3.447607e+02
0.0371605     	3.448551e+02
0.037284      	3.449526e+02
0.0374074     	3.450546e+02
0.0375309     	3.451599e+02
0.0376543     	3.452692e+02
0.0377778     	3.453825e+02
0.0379012     	3.455000e+02
0.0380247     	3.456216e+02
0.0381481     	3.457477e+02
0.0382716     	3.458781e+02
0.0383951     	3.460128e+02
0.0385185     	3.461524e+02
0.038642      	3.462967e+02
0.0387654     	3.464456e+02
0.0388889     	3.465991e+02
0.0390123     	3.467570e+02
0.0391358     	3.469202e+02
0.0392593     	3.470869e+02
0.0393827     	3.472587e+02
0.0395062     	3.474339e+02
0.0396296     	3.476142e+02
0.0397531     	3.477979e+02
0.0398765     	3.479867e+02
0.04          	3.481785e+02
0.040125      	3.483775e+02
0.04025       	3.485804e+02
0.040375      	3.487872e+02
0.0405        	3.489977e+02
0.040625      	3.492118e+02
0.04075       	3.494295e+02
0.040875      	3.496506e+02
0.041         	3.498750e+02
0.041125      	3.501025e+02
0.04125       	3.503330e+02
0.041375      	3.505664e+02
0.0415        	3.508025e+02
0.041625      	3.510413e+02
0.04175       	3.512824e+02
0.041875      	3.515260e+02
0.042         	3.517717e+02
0.042125      	3.520195e+02
0.04225       	3.522693e+02
0.042375      	3.525210e+02
0.0425        	3.527747e+02
0.042625      	3.530302e+02
0.04275       	3.532873e+02
0.042875      	3.535461e+02
0.043         	3.538062e+02
0.043125      	3.540676e+02
0.04325       	3.543299e+02
0.043375      	3.545929e+02
0.0435        	3.548563e+02
0.043625      	3.551204e+02
0.04375       	3.553850e+02
0.043875      	3.556501e+02
0.044         	3.559156e+02
0.044125      	3.561814e+02
0.04425       	3.564471e+02
0.044375      	3.567127e+02
0.0445        	3.569768e+02
0.044625      	3.572419e+02
0.04475       	3.575052e+02
0.044875      	3.577682e+02
0.045         	3.580307e+02
0.045125      	3.582927e+02
0.04525       	3.585541e+02
0.045375      	3.588147e+02
0.0455        	3.590745e+02
0.045625      	3.593332e+02
0.04575       	3.595910e+02
0.045875      	3.598475e+02
0.046         	3.601030e+02
0.046125      	3.603572e+02
0.04625       	3.606103e+02
0.046375      	3.608623e+02
0.0465        	3.611132e+02
0.046625      	3.613629e+02
0.04675       	3.616112e+02
0.046875      	3.618583e+02
0.047         	3.621040e+02
0.047125      	3.623483e+02
0.04725       	3.625915e+02
0.047375      	3.628334e+02
0.0475        	3.630741e+02
0.047625      	3.633138e+02
0.04775       	3.635524e+02
0.047875      	3.637900e+02
0.048         	3.640263e+02
0.048125      	3.642613e+02
0.04825       	3.644950e+02
0.048375      	3.647274e+02
0.0485        	3.649585e+02
0.048625      	3.651883e+02
0.04875       	3.654169e+02
0.048875      	3.656444e+02
0.049         	3.658706e+02
0.049125      	3.660955e+02
0.04925       	3.663189e+02
0.049375      	3.665407e+02
0.0495        	3.667609e+02
0.049625      	3.669794e+02
0.04975       	3.671959e+02
0.049875      	3.674106e+02
0.05          	3.676232e+02
0.050125      	3.678341e+02
0.05025       	3.680427e+02
0.050375      	3.682488e+02
0.0505        	3.684522e+02
0.050625      	3.686528e+02
0.05075       	3.688504e+02
0.050875      	3.690449e+02
0.051         	3.692362e+02
0.051125      	3.694242e+02
0.05125       	3.696085e+02
0.051375      	3.697887e+02
0.0515        	3.699646e+02
0.051625      	3.701360e+02
0.05175       	3.703027e+02
0.051875      	3.704644e+02
0.052         	3.706211e+02
0.052125      	3.707727e+02
0.05225       	3.709186e+02
0.052375      	3.710583e+02
0.0525        	3.711912e+02
0.052625      	3.713173e+02
0.05275       	3.714363e+02
0.052875      	3.715482e+02
0.053         	3.716532e+02
0.053125      	3.717514e+02
0.05325       	3.718421e+02
0.053375      	3.719249e+02
0.0535        	3.719990e+02
0.053625      	3.720645e+02
0.05375       	3.721214e+02
0.053875      	3.721703e+02
0.054         	3.722114e+02
0.054125      	3.722446e+02
0.05425       	3.722699e+02
0.054375      	3.722867e+02
0.0545        	3.722941e+02
0.054625      	3.722925e+02
0.05475       	3.722828e+02
0.054875      	3.722654e+02
0.055         	3.722406e+02
0.055125      	3.722085e+02
0.05525       	3.721692e+02
0.055375      	3.721213e+02
0.0555        	3.720656e+02
0.055625      	3.720027e+02
0.05575       	3.719331e+02
0.055875      	3.718576e+02
0.056         	3.717764e+02
0.056125      	3.716888e+02
0.05625       	3.715949e+02
0.056375      	3.714956e+02
0.0565        	3.713912e+02
0.056625      	3.712798e+02
0.05675       	3.711631e+02
0.056875      	3.710417e+02
0.057         	3.709161e+02
0.057125      	3.707857e+02
0.05725       	3.706505e+02
0.057375      	3.705103e+02
0.0575        	3.703657e+02
0.057625      	3.702177e+02
0.05775       	3.700674e+02
0.057875      	3.699160e+02
0.058         	3.697641e+02
0.058125      	3.696124e+02
0.05825       	3.694614e+02
0.058375      	3.693115e+02
0.0585        	3.691630e+02
0.058625      	3.690165e+02
0.05875       	3.688721e+02
0.058875      	3.687303e+02
0.059         	3.685912e+02
0.059125      	3.684551e+02
0.05925       	3.683223e+02
0.059375      	3.681930e+02
0.0595        	3.680672e+02
0.059625      	3.679452e+02
0.05975       	3.678272e+02
0.059875      	3.677132e+02
0.06          	3.676033e+02
0.060125      	3.674977e+02
0.06025       	3.673964e+02
0.060375      	3.672995e+02
0.0605        	3.672070e+02
0.060625      	3.671190e+02
0.06075       	3.670355e+02
0.060875      	3.669566e+02
0.061         	3.668823e+02
0.061125      	3.668126e+02
0.06125       	3.667473e+02
0.061375      	3.666866e+02
0.0615        	3.666303e+02
0.061625      	3.665785e+02
0.06175       	3.665310e+02
0.061875      	3.664877e+02
0.062         	3.664487e+02
0.062125      	3.664138e+02
0.06225       	3.663825e+02
0.062375      	3.663552e+02
0.0625        	3.663318e+02
0.062625      	3.663123e+02
0.06275       	3.662964e+02
0.062875      	3.662843e+02
0.063         	3.662756e+02
0.063125      	3.662705e+02
0.06325       	3.662688e+02
0.063375      	3.662704e+02
0.0635        	3.662752e+02
0.063625      	3.662831e+02
0.06375       	3.662940e+02
0.063875      	3.663080e+02
0.064         	3.663247e+02
0.064125      	3.663443e+02
0.06425       	3.663665e+02
0.064375      	3.663913e+02
0.0645        	3.664185e+02
0.064625      	3.664481e+02
0.06475       	3.664801e+02
0.064875      	3.665142e+02
0.065         	3.665505e+02
0.065125      	3.665888e+02
0.06525       	3.666263e+02
0.065375      	3.666686e+02
0.0655        	3.667100e+02
0.065625      	3.667532e+02
0.06575       	3.667981e+02
0.065875      	3.668446e+02
0.066         	3.668928e+02
0.066125      	3.669424e+02
0.06625       	3.669935e+02
0.066375      	3.670461e+02
0.0665        	3.671000e+02
0.066625      	3.671552e+02
0.06675       	3.672116e+02
0.066875      	3.672692e+02
0.067         	3.673280e+02
0.067125      	3.673879e+02
0.06725       	3.674489e+02
0.067375      	3.675109e+02
0.0675        	3.675739e+02
0.067625      	3.676379e+02
0.06775       	3.677028e+02
0.067875      	3.677686e+02
0.068         	3.678352e+02
0.068125      	3.679027e+02
0.06825       	3.679709e+02
0.068375      	3.680398e+02
0.0685        	3.681093e+02
0.068625      	3.681796e+02
0.06875       	3.682505e+02
0.068875      	3.683219e+02
0.069         	3.683940e+02
0.069125      	3.684666e+02
0.06925       	3.685398e+02
0.069375      	3.686134e+02
0.0695        	3.686875e+02
0.069625      	3.687621e+02
0.06975       	3.688370e+02
0.069875      	3.689123e+02
0.07          	3.689879e+02
0.070125      	3.690638e+02
0.07025       	3.691400e+02
0.070375      	3.692165e+02
0.0705        	3.692932e+02
0.070625      	3.693700e+02
0.07075       	3.694471e+02
0.070875      	3.695243e+02
0.071         	3.696016e+02
0.071125      	3.696790e+02
0.07125       	3.697564e+02
0.071375      	3.698338e+02
0.0715        	3.699113e+02
0.071625      	3.699887e+02
0.07175       	3.700660e+02
0.071875      	3.701433e+02
0.072         	3.702206e+02
0.072125      	3.702977e+02
0.07225       	3.703749e+02
0.072375      	3.704519e+02
0.0725        	3.705288e+02
0.072625      	3.706056e+02
0.07275       	3.706823e+02
0.072875      	3.707588e+02
0.073         	3.708351e+02
0.073125      	3.709111e+02
0.07325       	3.709870e+02
0.073375      	3.710626e+02
0.0735        	3.711380e+02
0.073625      	3.712132e+02
0.07375       	3.712881e+02
0.073875      	3.713626e+02
0.074         	3.714369e+02
0.074125      	3.715109e+02
0.07425       	3.715824e+02
0.074375      	3.716557e+02
0.0745        	3.717265e+02
0.074625      	3.717992e+02
0.07475       	3.718693e+02
0.074875      	3.719391e+02
0.075         	3.720085e+02
0.075125      	3.720776e+02
0.07525       	3.721463e+02
0.075375      	3.722146e+02
0.0755        	3.722826e+02
0.075625      	3.723502e+02
0.07575       	3.724174e+02
0.075875      	3.724843e+02
0.076         	3.725507e+02
0.076125      	3.726167e+02
0.07625       	3.726823e+02
0.076375      	3.727475e+02
0.0765        	3.728122e+02
0.076625      	3.728765e+02
0.07675       	3.729403e+02
0.076875      	3.730037e+02
0.077         	3.730666e+02
0.077125      	3.731289e+02
0.07725       	3.731908e+02
0.077375      	3.732521e+02
0.0775        	3.733130e+02
0.077625      	3.733733e+02
0.07775       	3.734331e+02
0.077875      	3.734924e+02
0.078         	3.735511e+02
0.078125      	3.736094e+02
0.07825       	3.736672e+02
0.078375      	3.737245e+02
0.0785        	3.737813e+02
0.078625      	3.738377e+02
0.07875       	3.738936e+02
0.078875      	3.739490e+02
0.079         	3.740040e+02
0.079125      	3.740586e+02
0.07925       	3.741126e+02
0.079375      	3.741662e+02
0.0795        	3.742194e+02
0.079625      	3.742721e+02
0.07975       	3.743245e+02
0.079875      	3.743764e+02
0.08          	3.744280e+02
0.080125      	3.744793e+02
0.08025       	3.745302e+02
0.080375      	3.745808e+02
0.0805        	3.746310e+02
0.080625      	3.746809e+02
0.08075       	3.747304e+02
0.080875      	3.747796e+02
0.081         	3.748285e+02
0.081125      	3.748771e+02
0.08125       	3.749255e+02
0.081375      	3.749736e+02
0.0815        	3.750216e+02
0.081625      	3.750694e+02
0.08175       	3.751170e+02
0.081875      	3.751645e+02
0.082         	3.752119e+02
0.082125      	3.752591e+02
0.08225       	3.753063e+02
0.082375      	3.753533e+02
0.0825        	3.754003e+02
0.082625      	3.754471e+02
0.08275       	3.754939e+02
0.082875      	3.755406e+02
0.083         	3.755872e+02
0.083125      	3.756337e+02
0.08325       	3.756801e+02
0.083375      	3.757264e+02
0.0835        	3.757726e+02
0.083625      	3.758187e+02
0.08375       	3.758647e+02
0.083875      	3.759106e+02
0.084         	3.759565e+02
0.084125      	3.760022e+02
0.08425       	3.760479e+02
0.084375      	3.760935e+02
0.0845        	3.761390e+02
0.084625      	3.761844e+02
0.08475       	3.762297e+02
0.084875      	3.762750e+02
0.085         	3.763201e+02
0.085125      	3.763652e+02
0.08525       	3.764102e+02
0.085375      	3.764551e+02
0.0855        	3.765000e+02
0.085625      	3.765447e+02
0.08575       	3.765894e+02
0.085875      	3.766340e+02
0.086         	3.766784e+02
0.086125      	3.767228e+02
0.08625       	3.767670e+02
0.086375      	3.768111e+02
0.0865        	3.768551e+02
0.086625      	3.768989e+02
0.08675       	3.769426e+02
0.086875      	3.769862e+02
0.087         	3.770297e+02
0.087125      	3.770729e+02
0.08725       	3.771161e+02
0.087375      	3.771591e+02
0.0875        	3.772019e+02
0.087625      	3.772446e+02
0.08775       	3.772871e+02
0.087875      	3.773273e+02
0.088         	3.773695e+02
0.088125      	3.774094e+02
0.08825       	3.774512e+02
0.088375      	3.774908e+02
0.0885        	3.775323e+02
0.088625      	3.775716e+02
0.08875       	3.776107e+02
0.088875      	3.776497e+02
0.089         	3.776885e+02
0.089125      	3.777272e+02
0.08925       	3.777658e+02
0.089375      	3.778042e+02
0.0895        	3.778425e+02
0.089625      	3.778806e+02
0.08975       	3.779187e+02
0.089875      	3.779566e+02
0.09          	3.779944e+02
0.090125      	3.780320e+02
0.09025       	3.780695e+02
0.090375      	3.781069e+02
0.0905        	3.781442e+02
0.090625      	3.781814e+02
0.09075       	3.782184e+02
0.090875      	3.782553e+02
0.091         	3.782921e+02
0.091125      	3.783287e+02
0.09125       	3.783653e+02
0.091375      	3.784017e+02
0.0915        	3.784380e+02
0.091625      	3.784743e+02
0.09175       	3.785104e+02
0.091875      	3.785464e+02
0.092         	3.785824e+02
0.092125      	3.786182e+02
0.09225       	3.786540e+02
0.092375      	3.786898e+02
0.0925        	3.787255e+02
0.092625      	3.787611e+02
0.09275       	3.787967e+02
0.092875      	3.788323e+02
0.093         	3.788678e+02
0.093125      	3.789033e+02
0.09325       	3.789388e+02
0.093375      	3.789743e+02
0.0935        	3.790097e+02
0.093625      	3.790452e+02
0.09375       	3.790806e+02
0.093875      	3.791160e+02
0.094         	3.791514e+02
0.094125      	3.791868e+02
0.09425       	3.792222e+02
0.094375      	3.792576e+02
0.0945        	3.792929e+02
0.094625      	3.793283e+02
0.09475       	3.793636e+02
0.094875      	3.793989e+02
0.095         	3.794343e+02
0.095125      	3.794697e+02
0.09525       	3.795050e+02
0.095375      	3.795404e+02
0.0955        	3.795757e+02
0.095625      	3.796110e+02
0.09575       	3.796463e+02
0.095875      	3.796816e+02
0.096         	3.797168e+02
0.096125      	3.797520e+02
0.09625       	3.797872e+02
0.096375      	3.798224e+02
0.0965        	3.798575e+02
0.096625      	3.798926e+02
0.09675       	3.799276e+02
0.096875      	3.799626e+02
0.097         	3.799976e+02
0.097125      	3.800325e+02
0.09725       	3.800675e+02
0.097375      	3.801023e+02
0.0975        	3.801372e+02
0.097625      	3.801720e+02
0.09775       	3.802067e+02
0.097875      	3.802414e+02
0.098         	3.802761e+02
0.098125      	3.803108e+02
0.09825       	3.803454e+02
0.098375      	3.803800e+02
0.0985        	3.804146e+02
0.098625      	3.804491e+02
0.09875       	3.804836e+02
0.098875      	3.805180e+02
0.099         	3.805524e+02
0.099125      	3.805868e+02
0.09925       	3.806211e+02
0.099375      	3.806553e+02
0.0995        	3.806895e+02
0.099625      	3.807237e+02
0.09975       	3.807579e+02
0.099875      	3.807920e+02
0.1           	3.808260e+02
0.100125      	3.808600e+02
0.10025       	3.808913e+02
0.100375      	3.809252e+02
0.1005        	3.809565e+02
0.100625      	3.809904e+02
0.10075       	3.810215e+02
0.100875      	3.810554e+02
0.101         	3.810865e+02
0.101125      	3.811175e+02
0.10125       	3.811486e+02
0.101375      	3.811797e+02
0.1015        	3.812107e+02
0.101625      	3.812418e+02
0.10175       	3.812728e+02
0.101875      	3.813038e+02
0.102         	3.813348e+02
0.102125      	3.813657e+02
0.10225       	3.813966e+02
0.102375      	3.814275e+02
0.1025        	3.814584e+02
0.102625      	3.814893e+02
0.10275       	3.815201e+02
0.102875      	3.815508e+02
0.103         	3.815816e+02
0.103125      	3.816122e+02
0.10325       	3.816429e+02
0.103375      	3.816734e+02
0.1035        	3.817039e+02
0.103625      	3.817344e+02
0.10375       	3.817648e+02
0.103875      	3.817951e+02
0.104         	3.818253e+02
0.104125      	3.818555e+02
0.10425       	3.818857e+02
0.104375      	3.819157e+02
0.1045        	3.819457e+02
0.104625      	3.819756e+02
0.10475       	3.820055e+02
0.104875      	3.820353e+02
0.105         	3.820651e+02
0.105125      	3.820948e+02
0.10525       	3.821245e+02
0.105375      	3.821541e+02
0.1055        	3.821836e+02
0.105625      	3.822131e+02
0.10575       	3.822426e+02
0.105875      	3.822720e+02
0.106         	3.823014e+02
0.106125      	3.823308e+02
0.10625       	3.823602e+02
0.106375      	3.823895e+02
0.1065        	3.824187e+02
0.106625      	3.824479e+02
0.10675       	3.824770e+02
0.106875      	3.825061e+02
0.107         	3.825352e+02
0.107125      	3.825641e+02
0.10725       	3.825931e+02
0.107375      	3.826219e+02
0.1075        	3.826507e+02
0.107625      	3.826795e+02
0.10775       	3.827082e+02
0.107875      	3.827369e+02
0.108         	3.827655e+02
0.108125      	3.827940e+02
0.10825       	3.828225e+02
0.108375      	3.828510e+02
0.1085        	3.828794e+02
0.108625      	3.829078e+02
0.10875       	3.829362e+02
0.108875      	3.829645e+02
0.109         	3.829928e+02
0.109125      	3.830210e+02
0.10925       	3.830492e+02
0.109375      	3.830774e+02
0.1095        	3.831055e+02
0.109625      	3.831336e+02
0.10975       	3.831616e+02
0.109875      	3.831897e+02
0.11          	3.832177e+02
0.110125      	3.832456e+02
0.11025       	3.832706e+02
0.110375      	3.832985e+02
0.1105        	3.833265e+02
0.110625      	3.833514e+02
0.11075       	3.833793e+02
0.110875      	3.834042e+02
0.111         	3.834321e+02
0.111125      	3.834569e+02
0.11125       	3.834848e+02
0.111375      	3.835097e+02
0.1115        	3.835375e+02
0.111625      	3.835624e+02
0.11175       	3.835872e+02
0.111875      	3.836151e+02
0.112         	3.836399e+02
0.112125      	3.836648e+02
0.11225       	3.836897e+02
0.112375      	3.837145e+02
0.1125        	3.837394e+02
0.112625      	3.837642e+02
0.11275       	3.837891e+02
0.112875      	3.838139e+02
0.113         	3.838387e+02
0.113125      	3.838635e+02
0.11325       	3.838883e+02
0.113375      	3.839130e+02
0.1135        	3.839378e+02
0.113625      	3.839625e+02
0.11375       	3.839872e+02
0.113875      	3.840118e+02
0.114         	3.840365e+02
0.114125      	3.840611e+02
0.11425       	3.840856e+02
0.114375      	3.841101e+02
0.1145        	3.841346e+02
0.114625      	3.841591e+02
0.11475       	3.841835e+02
0.114875      	3.842078e+02
0.115         	3.842321e+02
0.115125      	3.842564e+02
0.11525       	3.842806e+02
0.115375      	3.843047e+02
0.1155        	3.843289e+02
0.115625      	3.843529e+02
0.11575       	3.843769e+02
0.115875      	3.844008e+02
0.116         	3.844247e+02
0.116125      	3.844485e+02
0.11625       	3.844723e+02
0.116375      	3.844960e+02
0.1165        	3.845197e+02
0.116625      	3.845433e+02
0.11675       	3.845668e+02
0.116875      	3.845903e+02
0.117         	3.846137e+02
0.117125      	3.846370e+02
0.11725       	3.846603e+02
0.117375      	3.846835e+02
0.1175        	3.847066e+02
0.117625      	3.847297e+02
0.11775       	3.847527e+02
0.117875      	3.847756e+02
0.118         	3.847984e+02
0.118125      	3.848212e+02
0.11825       	3.848438e+02
0.118375      	3.848664e+02
0.1185        	3.848889e+02
0.118625      	3.849113e+02
0.11875       	3.849336e+02
0.118875      	3.849558e+02
0.119         	3.849779e+02
0.119125      	3.849999e+02
0.11925       	3.850218e+02
0.119375      	3.850436e+02
0.1195        	3.850653e+02
0.119625      	3.850870e+02
0.11975       	3.851085e+02
0.119875      	3.851298e+02
0.12          	3.851511e+02
0.120125      	3.851723e+02
0.12025       	3.851934e+02
0.120375      	3.852143e+02
0.1205        	3.852352e+02
0.120625      	3.852560e+02
0.12075       	3.852767e+02
0.120875      	3.852973e+02
0.121         	3.853177e+02
0.121125      	3.853380e+02
0.12125       	3.853583e+02
0.121375      	3.853784e+02
0.1215        	3.853984e+02
0.121625      	3.854183e+02
0.12175       	3.854381e+02
0.121875      	3.854577e+02
0.122         	3.854773e+02
0.122125      	3.854967e+02
0.12225       	3.855161e+02
0.122375      	3.855353e+02
0.1225        	3.855544e+02
0.122625      	3.855734e+02
0.12275       	3.855923e+02
0.122875      	3.856111e+02
0.123         	3.856299e+02
0.123125      	3.856485e+02
0.12325       	3.856670e+02
0.123375      	3.856854e+02
0.1235        	3.857038e+02
0.123625      	3.857220e+02
0.12375       	3.857402e+02
0.123875      	3.857583e+02
0.124         	3.857763e+02
0.124125      	3.857942e+02
0.12425       	3.858121e+02
0.124375      	3.858299e+02
0.1245        	3.858450e+02
0.124625      	3.858626e+02
0.12475       	3.858802e+02
0.124875      	3.858952e+02
0.125         	3.859126e+02
0.125125      	3.859275e+02
0.12525       	3.859448e+02
0.125375      	3.859596e+02
0.1255        	3.859769e+02
0.125625      	3.859916e+02
0.12575       	3.860087e+02
0.125875      	3.860234e+02
0.126         	3.860405e+02
0.126125      	3.860551e+02
0.12625       	3.860721e+02
0.126375      	3.860867e+02
0.1265        	3.861037e+02
0.126625      	3.861182e+02
0.12675       	3.861352e+02
0.126875      	3.861496e+02
0.127         	3.861640e+02
0.127125      	3.861809e+02
0.12725       	3.861953e+02
0.127375      	3.862096e+02
0.1275        	3.862240e+02
0.127625      	3.862383e+02
0.12775       	3.862526e+02
0.127875      	3.862669e+02
0.128         	3.862811e+02
0.128125      	3.862954e+02
0.12825       	3.863096e+02
0.128375      	3.863239e+02
0.1285        	3.863381e+02
0.128625      	3.863524e+02
0.12875       	3.863667e+02
0.128875      	3.863810e+02
0.129         	3.863952e+02
0.129125      	3.864095e+02
0.12925       	3.864239e+02
0.129375      	3.864382e+02
0.1295        	3.864525e+02
0.129625      	3.864668e+02
0.12975       	3.864812e+02
0.129875      	3.864955e+02
0.13          	3.865099e+02
0.130125      	3.865242e+02
0.13025       	3.865386e+02
0.130375      	3.865529e+02
0.1305        	3.865673e+02
0.130625      	3.865816e+02
0.13075       	3.865959e+02
0.130875      	3.866103e+02
0.131         	3.866246e+02
0.131125      	3.866389e+02
0.13125       	3.866532e+02
0.131375      	3.866675e+02
0.1315        	3.866818e+02
0.131625      	3.866960e+02
0.13175       	3.867103e+02
0.131875      	3.867246e+02
0.132         	3.867388e+02
0.132125      	3.867530e+02
0.13225       	3.867672e+02
0.132375      	3.867815e+02
0.1325        	3.867956e+02
0.132625      	3.868098e+02
0.13275       	3.868240e+02
0.132875      	3.868381e+02
0.133         	3.868522e+02
0.133125      	3.868663e+02
0.13325       	3.868803e+02
0.133375      	3.868944e+02
0.1335        	3.869084e+02
0.133625      	3.869223e+02
0.13375       	3.869362e+02
0.133875      	3.869501e+02
0.134         	3.869640e+02
0.134125      	3.869778e+02
0.13425       	3.869916e+02
0.134375      	3.870053e+02
0.1345        	3.870190e+02
0.134625      	3.870326e+02
0.13475       	3.870462e+02
0.134875      	3.870598e+02
0.135         	3.870733e+02
0.135125      	3.870868e+02
0.13525       	3.871002e+02
0.135375      	3.871136e+02
0.1355        	3.871269e+02
0.135625      	3.871402e+02
0.13575       	3.871534e+02
0.135875      	3.871666e+02
0.136         	3.871797e+02
0.136125      	3.871928e+02
0.13625       	3.872059e+02
0.136375      	3.872189e+02
0.1365        	3.872319e+02
0.136625      	3.872448e+02
0.13675       	3.872577e+02
0.136875      	3.872706e+02
0.137         	3.872834e+02
0.137125      	3.872962e+02
0.13725       	3.873090e+02
0.137375      	3.873217e+02
0.1375        	3.873344e+02
0.137625      	3.873470e+02
0.13775       	3.873597e+02
0.137875      	3.873723e+02
0.138         	3.873849e+02
0.138125      	3.873975e+02
0.13825       	3.874100e+02
0.138375      	3.874225e+02
0.1385        	3.874351e+02
0.138625      	3.874476e+02
0.13875       	3.874601e+02
0.138875      	3.874725e+02
0.139         	3.874850e+02
0.139125      	3.874975e+02
0.13925       	3.875099e+02
0.139375      	3.875224e+02
0.1395        	3.875348e+02
0.139625      	3.875473e+02
0.13975       	3.875597e+02
0.139875      	3.875722e+02
0.14          	3.875846e+02
0.140125      	3.875971e+02
0.14025       	3.876095e+02
0.140375      	3.876220e+02
0.1405        	3.876344e+02
0.140625      	3.876469e+02
0.14075       	3.876594e+02
0.140875      	3.876718e+02
0.141         	3.876843e+02
0.141125      	3.876968e+02
0.14125       	3.877093e+02
0.141375      	3.877218e+02
0.1415        	3.877343e+02
0.141625      	3.877468e+02
0.14175       	3.877593e+02
0.141875      	3.877718e+02
0.142         	3.877844e+02
0.142125      	3.877969e+02
0.14225       	3.878094e+02
0.142375      	3.878219e+02
0.1425        	3.878344e+02
0.142625      	3.878470e+02
0.14275       	3.878595e+02
0.142875      	3.878720e+02
0.143         	3.878845e+02
0.143125      	3.878970e+02
0.14325       	3.879095e+02
0.143375      	3.879219e+02
0.1435        	3.879344e+02
0.143625      	3.879468e+02
0.14375       	3.879592e+02
0.143875      	3.879716e+02
0.144         	3.879840e+02
0.144125      	3.879964e+02
0.14425       	3.880087e+02
0.144375      	3.880210e+02
0.1445        	3.880333e+02
0.144625      	3.880455e+02
0.14475       	3.880577e+02
0.144875      	3.880699e+02
0.145         	3.880820e+02
0.145125      	3.880941e+02
0.14525       	3.881061e+02
0.145375      	3.881181e+02
0.1455        	3.881301e+02
0.145625      	3.881420e+02
0.14575       	3.881514e+02
0.145875      	3.881632e+02
0.146         	3.881750e+02
0.146125      	3.881843e+02
0.14625       	3.881959e+02
0.146375      	3.882051e+02
0.1465        	3.882167e+02
0.146625      	3.882258e+02
0.14675       	3.882373e+02
0.146875      	3.882463e+02
0.147         	3.882577e+02
0.147125      	3.882667e+02
0.14725       	3.882780e+02
0.147375      	3.882869e+02
0.1475        	3.882982e+02
0.147625      	3.883070e+02
0.14775       	3.883182e+02
0.147875      	3.883270e+02
0.148         	3.883381e+02
0.148125      	3.883468e+02
0.14825       	3.883578e+02
0.148375      	3.883664e+02
0.1485        	3.883773e+02
0.148625      	3.883859e+02
0.14875       	3.883967e+02
0.148875      	3.884052e+02
0.149         	3.884159e+02
0.149125      	3.884243e+02
0.14925       	3.884349e+02
0.149375      	3.884432e+02
0.1495        	3.884537e+02
0.149625      	3.884619e+02
0.14975       	3.884723e+02
0.149875      	3.884804e+02
0.15          	3.884908e+02
0.150125      	3.884988e+02
0.15025       	3.885068e+02
0.150375      	3.885170e+02
0.1505        	3.885250e+02
0.150625      	3.885329e+02
0.15075       	3.885430e+02
0.150875      	3.885509e+02
0.151         	3.885587e+02
0.151125      	3.885687e+02
0.15125       	3.885765e+02
0.151375      	3.885842e+02
0.1515        	3.885919e+02
0.151625      	3.885996e+02
0.15175       	3.886073e+02
0.151875      	3.886150e+02
0.152         	3.886227e+02
0.152125      	3.886325e+02
0.15225       	3.886402e+02
0.152375      	3.886478e+02
0.1525        	3.886554e+02
0.152625      	3.886629e+02
0.15275       	3.886705e+02
0.152875      	3.886781e+02
0.153         	3.886856e+02
0.153125      	3.886931e+02
0.15325       	3.887007e+02
0.153375      	3.887082e+02
0.1535        	3.887156e+02
0.153625      	3.887231e+02
0.15375       	3.887305e+02
0.153875      	3.887380e+02
0.154         	3.887454e+02
0.154125      	3.887528e+02
0.15425       	3.887602e+02
0.154375      	3.887676e+02
0.1545        	3.887750e+02
0.154625      	3.887824e+02
0.15475       	3.887897e+02
0.154875      	3.887971e+02
0.155         	3.888044e+02
0.155125      	3.888118e+02
0.15525       	3.888191e+02
0.155375      	3.888265e+02
0.1555        	3.888338e+02
0.155625      	3.888411e+02
0.15575       	3.888484e+02
0.155875      	3.888558e+02
0.156         	3.888631e+02
0.156125      	3.888704e+02
0.15625       	3.888777e+02
0.156375      	3.888850e+02
0.1565        	3.888923e+02
0.156625      	3.888996e+02
0.15675       	3.889069e+02
0.156875      	3.889143e+02
0.157         	3.889216e+02
0.157125      	3.889289e+02
0.15725       	3.889362e+02
0.157375      	3.889435e+02
0.1575        	3.889508e+02
0.157625      	3.889581e+02
0.15775       	3.889654e+02
0.157875      	3.889727e+02
0.158         	3.889801e+02
0.158125      	3.889874e+02
0.15825       	3.889947e+02
0.158375      	3.890020e+02
0.1585        	3.890093e+02
0.158625      	3.890166e+02
0.15875       	3.890238e+02
0.158875      	3.890311e+02
0.159         	3.890384e+02
0.159125      	3.890456e+02
0.15925       	3.890529e+02
0.159375      	3.890601e+02
0.1595        	3.890673e+02
0.159625      	3.890746e+02
0.15975       	3.890818e+02
0.159875      	3.890889e+02
0.16          	3.890961e+02
0.160125      	3.891033e+02
0.16025       	3.891104e+02
0.160375      	3.891175e+02
0.1605        	3.891246e+02
0.160625      	3.891317e+02
0.16075       	3.891387e+02
0.160875      	3.891457e+02
0.161         	3.891527e+02
0.161125      	3.891597e+02
0.16125       	3.891667e+02
0.161375      	3.891736e+02
0.1615        	3.891805e+02
0.161625      	3.891874e+02
0.16175       	3.891943e+02
0.161875      	3.892011e+02
0.162         	3.892079e+02
0.162125      	3.892147e+02
0.16225       	3.892215e+02
0.162375      	3.892282e+02
0.1625        	3.892349e+02
0.162625      	3.892416e+02
0.16275       	3.892482e+02
0.162875      	3.892549e+02
0.163         	3.892615e+02
0.163125      	3.892681e+02
0.16325       	3.892746e+02
0.163375      	3.892811e+02
0.1635        	3.892877e+02
0.163625      	3.892941e+02
0.16375       	3.893006e+02
0.163875      	3.893070e+02
0.164         	3.893135e+02
0.164125      	3.893199e+02
0.16425       	3.893263e+02
0.164375      	3.893326e+02
0.1645        	3.893390e+02
0.164625      	3.893453e+02
0.16475       	3.893516e+02
0.164875      	3.893579e+02
0.165         	3.893642e+02
0.165125      	3.893705e+02
0.16525       	3.893768e+02
0.165375      	3.893830e+02
0.1655        	3.893893e+02
0.165625      	3.893955e+02
0.16575       	3.894017e+02
0.165875      	3.894079e+02
0.166         	3.894141e+02
0.166125      	3.894203e+02
0.16625       	3.894265e+02
0.166375      	3.894327e+02
0.1665        	3.894389e+02
0.166625      	3.894451e+02
0.16675       	3.894513e+02
0.166875      	3.894575e+02
0.167         	3.894637e+02
0.167125      	3.894699e+02
0.16725       	3.894761e+02
0.167375      	3.894823e+02
0.1675        	3.894885e+02
0.167625      	3.894948e+02
0.16775       	3.895010e+02
0.167875      	3.895072e+02
0.168         	3.895134e+02
0.168125      	3.895197e+02
0.16825       	3.895259e+02
0.168375      	3.895322e+02
0.1685        	3.895384e+02
0.168625      	3.895447e+02
0.16875       	3.895509e+02
0.168875      	3.895572e+02
0.169         	3.895635e+02
0.169125      	3.895698e+02
0.16925       	3.895760e+02
0.169375      	3.895823e+02
0.1695        	3.895886e+02
0.169625      	3.895949e+02
0.16975       	3.896012e+02
0.169875      	3.896075e+02
0.17          	3.896138e+02
0.170125      	3.896201e+02
0.17025       	3.896264e+02
0.170375      	3.896327e+02
0.1705        	3.896390e+02
0.170625      	3.896453e+02
0.17075       	3.896516e+02
0.170875      	3.896579e+02
0.171         	3.896641e+02
0.171125      	3.896704e+02
0.17125       	3.896767e+02
0.171375      	3.896830e+02
0.1715        	3.896892e+02
0.171625      	3.896955e+02
0.17175       	3.897017e+02
0.171875      	3.897080e+02
0.172         	3.897142e+02
0.172125      	3.897204e+02
0.17225       	3.897266e+02
0.172375      	3.897328e+02
0.1725        	3.897390e+02
0.172625      	3.897452e+02
0.17275       	3.897514e+02
0.172875      	3.897575e+02
0.173         	3.897636e+02
0.173125      	3.897698e+02
0.17325       	3.897759e+02
0.173375      	3.897819e+02
0.1735        	3.897880e+02
0.173625      	3.897941e+02
0.17375       	3.898001e+02
0.173875      	3.898061e+02
0.174         	3.898121e+02
0.174125      	3.898181e+02
0.17425       	3.898241e+02
0.174375      	3.898301e+02
0.1745        	3.898360e+02
0.174625      	3.898419e+02
0.17475       	3.898478e+02
0.174875      	3.898537e+02
0.175         	3.898596e+02
0.175125      	3.898654e+02
0.17525       	3.898712e+02
0.175375      	3.898771e+02
0.1755        	3.898829e+02
0.175625      	3.898887e+02
0.17575       	3.898944e+02
0.175875      	3.899002e+02
0.176         	3.899059e+02
0.176125      	3.899116e+02
0.17625       	3.899174e+02
0.176375      	3.899231e+02
0.1765        	3.899287e+02
0.176625      	3.899344e+02
0.17675       	3.899401e+02
0.176875      	3.899457e+02
0.177         	3.899513e+02
0.177125      	3.899570e+02
0.17725       	3.899626e+02
0.177375      	3.899682e+02
0.1775        	3.899738e+02
0.177625      	3.899793e+02
0.17775       	3.899849e+02
0.177875      	3.899905e+02
0.178         	3.899960e+02
0.178125      	3.900016e+02
0.17825       	3.900071e+02
0.178375      	3.900126e+02
0.1785        	3.900182e+02
0.178625      	3.900237e+02
0.17875       	3.900292e+02
0.178875      	3.900347e+02
0.179         	3.900402e+02
0.179125      	3.900457e+02
0.17925       	3.900511e+02
0.179375      	3.900566e+02
0.1795        	3.900621e+02
0.179625      	3.900676e+02
0.17975       	3.900730e+02
0.179875      	3.900785e+02
0.18          	3.900839e+02
0.180125      	3.900894e+02
0.18025       	3.900948e+02
0.180375      	3.901002e+02
0.1805        	3.901057e+02
0.180625      	3.901111e+02
0.18075       	3.901165e+02
0.180875      	3.901219e+02
0.181         	3.901273e+02
0.181125      	3.901327e+02
0.18125       	3.901381e+02
0.181375      	3.901435e+02
0.1815        	3.901489e+02
0.181625      	3.901543e+02
0.18175       	3.901597e+02
0.181875      	3.901651e+02
0.182         	3.901704e+02
0.182125      	3.901758e+02
0.18225       	3.901812e+02
0.182375      	3.901865e+02
0.1825        	3.901919e+02
0.182625      	3.901973e+02
0.18275       	3.902026e+02
0.182875      	3.902080e+02
0.183         	3.902133e+02
0.183125      	3.902187e+02
0.18325       	3.902240e+02
0.183375      	3.902293e+02
0.1835        	3.902347e+02
0.183625      	3.902400e+02
0.18375       	3.902453e+02
0.183875      	3.902507e+02
0.184         	3.902560e+02
0.184125      	3.902613e+02
0.18425       	3.902667e+02
0.184375      	3.902720e+02
0.1845        	3.902773e+02
0.184625      	3.902826e+02
0.18475       	3.902880e+02
0.184875      	3.902933e+02
0.185         	3.902986e+02
0.185125      	3.903039e+02
0.18525       	3.903093e+02
0.185375      	3.903146e+02
0.1855        	3.903199e+02
0.185625      	3.903252e+02
0.18575       	3.903306e+02
0.185875      	3.903359e+02
0.186         	3.903412e+02
0.186125      	3.903466e+02
0.18625       	3.903519e+02
0.186375      	3.903572e+02
0.1865        	3.903625e+02
0.186625      	3.903679e+02
0.18675       	3.903732e+02
0.186875      	3.903785e+02
0.187         	3.903838e+02
0.187125      	3.903891e+02
0.18725       	3.903945e+02
0.187375      	3.903998e+02
0.1875        	3.904051e+02
0.187625      	3.904104e+02
0.18775       	3.904158e+02
0.187875      	3.904211e+02
0.188         	3.904264e+02
0.188125      	3.904317e+02
0.18825       	3.904370e+02
0.188375      	3.904423e+02
0.1885        	3.904476e+02
0.188625      	3.904530e+02
0.18875       	3.904583e+02
0.188875      	3.904636e+02
0.189         	3.904689e+02
0.189125      	3.904742e+02
0.18925       	3.904795e+02
0.189375      	3.904847e+02
0.1895        	3.904900e+02
0.189625      	3.904953e+02
0.18975       	3.905006e+02
0.189875      	3.905059e+02
0.19          	3.905111e+02
0.190125      	3.905164e+02
0.19025       	3.905216e+02
0.190375      	3.905269e+02
0.1905        	3.905321e+02
0.190625      	3.905374e+02
0.19075       	3.905426e+02
0.190875      	3.905479e+02
0.191         	3.905531e+02
0.191125      	3.905583e+02
0.19125       	3.905635e+02
0.191375      	3.905687e+02
0.1915        	3.905739e+02
0.191625      	3.905791e+02
0.19175       	3.905843e+02
0.191875      	3.905894e+02
0.192         	3.905946e+02
0.192125      	3.905998e+02
0.19225       	3.906049e+02
0.192375      	3.906101e+02
0.1925        	3.906152e+02
0.192625      	3.906203e+02
0.19275       	3.906254e+02
0.192875      	3.906305e+02
0.193         	3.906356e+02
0.193125      	3.906407e+02
0.19325       	3.906458e+02
0.193375      	3.906508e+02
0.1935        	3.906559e+02
0.193625      	3.906609e+02
0.19375       	3.906659e+02
0.193875      	3.906710e+02
0.194         	3.906760e+02
0.194125      	3.906809e+02
0.19425       	3.906859e+02
0.194375      	3.906909e+02
0.1945        	3.906958e+02
0.194625      	3.907007e+02
0.19475       	3.907057e+02
0.194875      	3.907106e+02
0.195         	3.907154e+02
0.195125      	3.907203e+02
0.19525       	3.907251e+02
0.195375      	3.907300e+02
0.1955        	3.907348e+02
0.195625      	3.907396e+02
0.19575       	3.907444e+02
0.195875      	3.907491e+02
0.196         	3.907539e+02
0.196125      	3.907586e+02
0.19625       	3.907633e+02
0.196375      	3.907680e+02
0.1965        	3.907727e+02
0.196625      	3.907773e+02
0.19675       	3.907820e+02
0.196875      	3.907866e+02
0.197         	3.907912e+02
0.197125      	3.907958e+02
0.19725       	3.908003e+02
0.197375      	3.908049e+02
0.1975        	3.908094e+02
0.197625      	3.908139e+02
0.19775       	3.908184e+02
0.197875      	3.908228e+02
0.198         	3.908273e+02
0.198125      	3.908317e+02
0.19825       	3.908361e+02
0.198375      	3.908405e+02
0.1985        	3.908449e+02
0.198625      	3.908493e+02
0.19875       	3.908536e+02
0.198875      	3.908580e+02
0.199         	3.908623e+02
0.199125      	3.908666e+02
0.19925       	3.908708e+02
0.199375      	3.908751e+02
0.1995        	3.908794e+02
0.199625      	3.908836e+02
0.19975       	3.908878e+02
0.199875      	3.908920e+02
0.2           	3.908962e+02
0.200125      	3.909004e+02
0.20025       	3.909045e+02
0.200375      	3.909087e+02
0.2005        	3.909128e+02
0.200625      	3.909169e+02
0.20075       	3.909210e+02
0.200875      	3.909251e+02
0.201         	3.909292e+02
0.201125      	3.909332e+02
0.20125       	3.909373e+02
0.201375      	3.909413e+02
0.2015        	3.909453e+02
0.201625      	3.909493e+02
0.20175       	3.909533e+02
0.201875      	3.909573e+02
0.202         	3.909613e+02
0.202125      	3.909652e+02
0.20225       	3.909692e+02
0.202375      	3.909731e+02
0.2025        	3.909770e+02
0.202625      	3.909810e+02
0.20275       	3.909849e+02
0.202875      	3.909888e+02
0.203         	3.909926e+02
0.203125      	3.909965e+02
0.20325       	3.910004e+02
0.203375      	3.910043e+02
0.2035        	3.910081e+02
0.203625      	3.910120e+02
0.20375       	3.910158e+02
0.203875      	3.910197e+02
0.204         	3.910235e+02
0.204125      	3.910273e+02
0.20425       	3.910311e+02
0.204375      	3.910350e+02
0.2045        	3.910388e+02
0.204625      	3.910426e+02
0.20475       	3.910464e+02
0.204875      	3.910502e+02
0.205         	3.910540e+02
0.205125      	3.910578e+02
0.20525       	3.910615e+02
0.205375      	3.910653e+02
0.2055        	3.910691e+02
0.205625      	3.910729e+02
0.20575       	3.910767e+02
0.205875      	3.910804e+02
0.206         	3.910842e+02
0.206125      	3.910880e+02
0.20625       	3.910918e+02
0.206375      	3.910955e+02
0.2065        	3.910993e+02
0.206625      	3.911031e+02
0.20675       	3.911069e+02
0.206875      	3.911106e+02
0.207         	3.911144e+02
0.207125      	3.911182e+02
0.20725       	3.911220e+02
0.207375      	3.911258e+02
0.2075        	3.911295e+02
0.207625      	3.911333e+02
0.20775       	3.911371e+02
0.207875      	3.911409e+02
0.208         	3.911447e+02
0.208125      	3.911485e+02
0.20825       	3.911523e+02
0.208375      	3.911561e+02
0.2085        	3.911599e+02
0.208625      	3.911637e+02
0.20875       	3.911675e+02
0.208875      	3.911713e+02
0.209         	3.911751e+02
0.209125      	3.911790e+02
0.20925       	3.911828e+02
0.209375      	3.911866e+02
0.2095        	3.911905e+02
0.209625      	3.911943e+02
0.20975       	3.911982e+02
0.209875      	3.912020e+02
0.21          	3.912059e+02
0.210125      	3.912097e+02
0.21025       	3.912136e+02
0.210375      	3.912175e+02
0.2105        	3.912214e+02
0.210625      	3.912253e+02
0.21075       	3.912292e+02
0.210875      	3.912331e+02
0.211         	3.912370e+02
0.211125      	3.912408e+02
0.21125       	3.912448e+02
0.211375      	3.912486e+02
0.2115        	3.912525e+02
0.211625      	3.912564e+02
0.21175       	3.912603e+02
0.211875      	3.912642e+02
0.212         	3.912681e+02
0.212125      	3.912720e+02
0.21225       	3.912759e+02
0.212375      	3.912798e+02
0.2125        	3.912838e+02
0.212625      	3.912877e+02
0.21275       	3.912916e+02
0.212875      	3.912940e+02
0.213         	3.912979e+02
0.213125      	3.913003e+02
0.21325       	3.913043e+02
0.213375      	3.913067e+02
0.2135        	3.913106e+02
0.213625      	3.913130e+02
0.21375       	3.913170e+02
0.213875      	3.913193e+02
0.214         	3.913233e+02
0.214125      	3.913257e+02
0.21425       	3.913297e+02
0.214375      	3.913321e+02
0.2145        	3.913361e+02
0.214625      	3.913385e+02
0.21475       	3.913426e+02
0.214875      	3.913450e+02
0.215         	3.913491e+02
0.215125      	3.913515e+02
0.21525       	3.913556e+02
0.215375      	3.913581e+02
0.2155        	3.913621e+02
0.215625      	3.913646e+02
0.21575       	3.913686e+02
0.215875      	3.913711e+02
0.216         	3.913752e+02
0.216125      	3.913776e+02
0.21625       	3.913817e+02
0.216375      	3.913841e+02
0.2165        	3.913881e+02
0.216625      	3.913906e+02
0.21675       	3.913946e+02
0.216875      	3.913970e+02
0.217         	3.914010e+02
0.217125      	3.914035e+02
0.21725       	3.914075e+02
0.217375      	3.914099e+02
0.2175        	3.914139e+02
0.217625      	3.914164e+02
0.21775       	3.914204e+02
0.217875      	3.914228e+02
0.218         	3.914268e+02
0.218125      	3.914292e+02
0.21825       	3.914332e+02
0.218375      	3.914357e+02
0.2185        	3.914397e+02
0.218625      	3.914421e+02
0.21875       	3.914461e+02
0.218875      	3.914486e+02
0.219         	3.914526e+02
0.219125      	3.914550e+02
0.21925       	3.914590e+02
0.219375      	3.914614e+02
0.2195        	3.914654e+02
0.219625      	3.914678e+02
0.21975       	3.914718e+02
0.219875      	3.914742e+02
0.22          	3.914782e+02
0.220125      	3.914806e+02
0.22025       	3.914845e+02
0.220375      	3.914869e+02
0.2205        	3.914909e+02
0.220625      	3.914933e+02
0.22075       	3.914972e+02
0.220875      	3.914996e+02
0.221         	3.915035e+02
0.221125      	3.915059e+02
0.22125       	3.915098e+02
0.221375      	3.915122e+02
0.2215        	3.915161e+02
0.221625      	3.915185e+02
0.22175       	3.915224e+02
0.221875      	3.915248e+02
0.222         	3.915286e+02
0.222125      	3.915310e+02
0.22225       	3.915349e+02
0.222375      	3.915372e+02
0.2225        	3.915411e+02
0.222625      	3.915435e+02
0.22275       	3.915473e+02
0.222875      	3.915496e+02
0.223         	3.915535e+02
0.223125      	3.915558e+02
0.22325       	3.915581e+02
0.223375      	3.915603e+02
0.2235        	3.915626e+02
0.223625      	3.915648e+02
0.22375       	3.915671e+02
0.223875      	3.915693e+02
0.224         	3.915715e+02
0.224125      	3.915737e+02
0.22425       	3.915775e+02
0.224375      	3.915797e+02
0.2245        	3.915835e+02
0.224625      	3.915858e+02
0.22475       	3.915896e+02
0.224875      	3.915920e+02
0.225         	3.915958e+02
0.225125      	3.915982e+02
0.22525       	3.916021e+02
0.225375      	3.916045e+02
0.2255        	3.916083e+02
0.225625      	3.916107e+02
0.22575       	3.916145e+02
0.225875      	3.916169e+02
0.226         	3.916206e+02
0.226125      	3.916229e+02
0.22625       	3.916251e+02
0.226375      	3.916273e+02
0.2265        	3.916295e+02
0.226625      	3.916316e+02
0.22675       	3.916337e+02
0.226875      	3.916359e+02
0.227         	3.916380e+02
0.227125      	3.916401e+02
0.22725       	3.916422e+02
0.227375      	3.916443e+02
0.2275        	3.916464e+02
0.227625      	3.916485e+02
0.22775       	3.916521e+02
0.227875      	3.916543e+02
0.228         	3.916580e+02
0.228125      	3.916603e+02
0.22825       	3.916640e+02
0.228375      	3.916663e+02
0.2285        	3.916700e+02
0.228625      	3.916723e+02
0.22875       	3.916761e+02
0.228875      	3.916784e+02
0.229         	3.916821e+02
0.229125      	3.916844e+02
0.22925       	3.916866e+02
0.229375      	3.916887e+02
0.2295        	3.916908e+02
0.229625      	3.916929e+02
0.22975       	3.916950e+02
0.229875      	3.916970e+02
0.23          	3.916991e+02
0.230125      	3.917011e+02
0.23025       	3.917030e+02
0.230375      	3.917050e+02
0.2305        	3.917070e+02
0.230625      	3.917090e+02
0.23075       	3.917110e+02
0.230875      	3.917131e+02
0.231         	3.917151e+02
0.231125      	3.917172e+02
0.23125       	3.917193e+02
0.231375      	3.917214e+02
0.2315        	3.917235e+02
0.231625      	3.917256e+02
0.23175       	3.917277e+02
0.231875      	3.917298e+02
0.232         	3.917319e+02
0.232125      	3.917340e+02
0.23225       	3.917361e+02
0.232375      	3.917382e+02
0.2325        	3.917403e+02
0.232625      	3.917423e+02
0.23275       	3.917444e+02
0.232875      	3.917464e+02
0.233         	3.917485e+02
0.233125      	3.917505e+02
0.23325       	3.917525e+02
0.233375      	3.917545e+02
0.2335        	3.917565e+02
0.233625      	3.917586e+02
0.23375       	3.917606e+02
0.233875      	3.917626e+02
0.234         	3.917646e+02
0.234125      	3.917666e+02
0.23425       	3.917686e+02
0.234375      	3.917707e+02
0.2345        	3.917727e+02
0.234625      	3.917747e+02
0.23475       	3.917767e+02
0.234875      	3.917787e+02
0.235         	3.917808e+02
0.235125      	3.917828e+02
0.23525       	3.917848e+02
0.235375      	3.917868e+02
0.2355        	3.917889e+02
0.235625      	3.917909e+02
0.23575       	3.917929e+02
0.235875      	3.917950e+02
0.236         	3.917970e+02
0.236125      	3.917990e+02
0.23625       	3.918010e+02
0.236375      	3.918031e+02
0.2365        	3.918051e+02
0.236625      	3.918071e+02
0.23675       	3.918091e+02
0.236875      	3.918111e+02
0.237         	3.918131e+02
0.237125      	3.918152e+02
0.23725       	3.918172e+02
0.237375      	3.918192e+02
0.2375        	3.918212e+02
0.237625      	3.918232e+02
0.23775       	3.918252e+02
0.237875      	3.918272e+02
0.238         	3.918291e+02
0.238125      	3.918311e+02
0.23825       	3.918331e+02
0.238375      	3.918351e+02
0.2385        	3.918370e+02
0.238625      	3.918390e+02
0.23875       	3.918409e+02
0.238875      	3.918429e+02
0.239         	3.918448e+02
0.239125      	3.918467e+02
0.23925       	3.918487e+02
0.239375      	3.918506e+02
0.2395        	3.918525e+02
0.239625      	3.918544e+02
0.23975       	3.918563e+02
0.239875      	3.918582e+02
0.24          	3.918601e+02
0.240125      	3.918620e+02
0.24025       	3.918638e+02
0.240375      	3.918657e+02
0.2405        	3.918676e+02
0.240625      	3.918694e+02
0.24075       	3.918713e+02
0.240875      	3.918731e+02
0.241         	3.918750e+02
0.241125      	3.918768e+02
0.24125       	3.918787e+02
0.241375      	3.918805e+02
0.2415        	3.918823e+02
0.241625      	3.918841e+02
0.24175       	3.918859e+02
0.241875      	3.918878e+02
0.242         	3.918896e+02
0.242125      	3.918914e+02
0.24225       	3.918932e+02
0.242375      	3.918950e+02
0.2425        	3.918968e+02
0.242625      	3.918986e+02
0.24275       	3.919004e+02
0.242875      	3.919022e+02
0.243         	3.919039e+02
0.243125      	3.919057e+02
0.24325       	3.919075e+02
0.243375      	3.919093e+02
0.2435        	3.919111e+02
0.243625      	3.919129e+02
0.24375       	3.919146e+02
0.243875      	3.919164e+02
0.244         	3.919182e+02
0.244125      	3.919200e+02
0.24425       	3.919218e+02
0.244375      	3.919235e+02
0.2445        	3.919253e+02
0.244625      	3.919271e+02
0.24475       	3.919288e+02
0.244875      	3.919306e+02
0.245         	3.919324e+02
0.245125      	3.919342e+02
0.24525       	3.919359e+02
0.245375      	3.919377e+02
0.2455        	3.919395e+02
0.245625      	3.919413e+02
0.24575       	3.919430e+02
0.245875      	3.919448e+02
0.246         	3.919466e+02
0.246125      	3.919484e+02
0.24625       	3.919501e+02
0.246375      	3.919519e+02
0.2465        	3.919537e+02
0.246625      	3.919555e+02
0.24675       	3.919573e+02
0.246875      	3.919590e+02
0.247         	3.919608e+02
0.247125      	3.919626e+02
0.24725       	3.919644e+02
0.247375      	3.919662e+02
0.2475        	3.919680e+02
0.247625      	3.919698e+02
0.24775       	3.919716e+02
0.247875      	3.919734e+02
0.248         	3.919752e+02
0.248125      	3.919770e+02
0.24825       	3.919788e+02
0.248375      	3.919806e+02
0.2485        	3.919824e+02
0.248625      	3.919842e+02
0.24875       	3.919860e+02
0.248875      	3.919878e+02
0.249         	3.919896e+02
0.249125      	3.919914e+02
0.24925       	3.919932e+02
0.249375      	3.919951e+02
0.2495        	3.919969e+02
0.249625      	3.919987e+02
0.24975       	3.920005e+02
0.249875      	3.920023e+02
0.25          	3.920041e+02
0.250125      	3.920059e+02
0.25025       	3.920077e+02
0.250375      	3.920095e+02
0.2505        	3.920114e+02
0.250625      	3.920132e+02
0.25075       	3.920150e+02
0.250875      	3.920168e+02
0.251         	3.920186e+02
0.251125      	3.920204e+02
0.25125       	3.920222e+02
0.251375      	3.920240e+02
0.2515        	3.920258e+02
0.251625      	3.920276e+02
0.25175       	3.920293e+02
0.251875      	3.920311e+02
0.252         	3.920329e+02
0.252125      	3.920347e+02
0.25225       	3.920365e+02
0.252375      	3.920383e+02
0.2525        	3.920401e+02
0.252625      	3.920419e+02
0.25275       	3.920437e+02
0.252875      	3.920454e+02
0.253         	3.920485e+02
0.253125      	3.920503e+02
0.25325       	3.920534e+02
0.253375      	3.920552e+02
0.2535        	3.920583e+02
0.253625      	3.920602e+02
0.25375       	3.920632e+02
0.253875      	3.920651e+02
0.254         	3.920682e+02
0.254125      	3.920701e+02
0.25425       	3.920733e+02
0.254375      	3.920752e+02
0.2545        	3.920783e+02
0.254625      	3.920802e+02
0.25475       	3.920832e+02
0.254875      	3.920851e+02
0.255         	3.920882e+02
0.255125      	3.920901e+02
0.25525       	3.920931e+02
0.255375      	3.920950e+02
0.2555        	3.920981e+02
0.255625      	3.921000e+02
0.25575       	3.921031e+02
0.255875      	3.921050e+02
0.256         	3.921081e+02
0.256125      	3.921100e+02
0.25625       	3.921131e+02
0.256375      	3.921151e+02
0.2565        	3.921183e+02
0.256625      	3.921202e+02
0.25675       	3.921234e+02
0.256875      	3.921254e+02
0.257         	3.921287e+02
0.257125      	3.921307e+02
0.25725       	3.921339e+02
0.257375      	3.921360e+02
0.2575        	3.921392e+02
0.257625      	3.921413e+02
0.25775       	3.921445e+02
0.257875      	3.921466e+02
0.258         	3.921498e+02
0.258125      	3.921519e+02
0.25825       	3.921552e+02
0.258375      	3.921572e+02
0.2585        	3.921605e+02
0.258625      	3.921626e+02
0.25875       	3.921659e+02
0.258875      	3.921680e+02
0.259         	3.921713e+02
0.259125      	3.921733e+02
0.25925       	3.921767e+02
0.259375      	3.921787e+02
0.2595        	3.921821e+02
0.259625      	3.921841e+02
0.25975       	3.921875e+02
0.259875      	3.921896e+02
0.26          	3.921929e+02
0.260125      	3.921950e+02
0.26025       	3.921983e+02
0.260375      	3.922004e+02
0.2605        	3.922038e+02
0.260625      	3.922059e+02
0.26075       	3.922092e+02
0.260875      	3.922113e+02
0.261         	3.922146e+02
0.261125      	3.922179e+02
0.26125       	3.922213e+02
0.261375      	3.922246e+02
0.2615        	3.922279e+02
0.261625      	3.922312e+02
0.26175       	3.922345e+02
0.261875      	3.922379e+02
0.262         	3.922412e+02
0.262125      	3.922444e+02
0.26225       	3.922477e+02
0.262375      	3.922509e+02
0.2625        	3.922542e+02
0.262625      	3.922573e+02
0.26275       	3.922605e+02
0.262875      	3.922636e+02
0.263         	3.922667e+02
0.263125      	3.922698e+02
0.26325       	3.922728e+02
0.263375      	3.922759e+02
0.2635        	3.922789e+02
0.263625      	3.922818e+02
0.26375       	3.922848e+02
0.263875      	3.922877e+02
0.264         	3.922907e+02
0.264125      	3.922936e+02
0.26425       	3.922964e+02
0.264375      	3.922993e+02
0.2645        	3.923022e+02
0.264625      	3.923050e+02
0.26475       	3.923079e+02
0.264875      	3.923107e+02
0.265         	3.923135e+02
0.265125      	3.923162e+02
0.26525       	3.923190e+02
0.265375      	3.923217e+02
0.2655        	3.923244e+02
0.265625      	3.923271e+02
0.26575       	3.923298e+02
0.265875      	3.923324e+02
0.266         	3.923350e+02
0.266125      	3.923376e+02
0.26625       	3.923402e+02
0.266375      	3.923427e+02
0.2665        	3.923453e+02
0.266625      	3.923478e+02
0.26675       	3.923503e+02
0.266875      	3.923527e+02
0.267         	3.923552e+02
0.267125      	3.923576e+02
0.26725       	3.923600e+02
0.267375      	3.923624e+02
0.2675        	3.923648e+02
0.267625      	3.923671e+02
0.26775       	3.923694e+02
0.267875      	3.923717e+02
0.268         	3.923740e+02
0.268125      	3.923763e+02
0.26825       	3.923785e+02
0.268375      	3.923808e+02
0.2685        	3.923830e+02
0.268625      	3.923852e+02
0.26875       	3.923874e+02
0.268875      	3.923896e+02
0.269         	3.923918e+02
0.269125      	3.923939e+02
0.26925       	3.923961e+02
0.269375      	3.923983e+02
0.2695        	3.924004e+02
0.269625      	3.924025e+02
0.26975       	3.924047e+02
0.269875      	3.924068e+02
0.27          	3.924089e+02
0.270125      	3.924111e+02
0.27025       	3.924132e+02
0.270375      	3.924153e+02
0.2705        	3.924174e+02
0.270625      	3.924195e+02
0.27075       	3.924217e+02
0.270875      	3.924238e+02
0.271         	3.924259e+02
0.271125      	3.924280e+02
0.27125       	3.924301e+02
0.271375      	3.924323e+02
0.2715        	3.924344e+02
0.271625      	3.924365e+02
0.27175       	3.924386e+02
0.271875      	3.924407e+02
0.272         	3.924428e+02
0.272125      	3.924450e+02
0.27225       	3.924471e+02
0.272375      	3.924492e+02
0.2725        	3.924513e+02
0.272625      	3.924534e+02
0.27275       	3.924555e+02
0.272875      	3.924576e+02
0.273         	3.924597e+02
0.273125      	3.924618e+02
0.27325       	3.924639e+02
0.273375      	3.924660e+02
0.2735        	3.924680e+02
0.273625      	3.924701e+02
0.27375       	3.924722e+02
0.273875      	3.924743e+02
0.274         	3.924764e+02
0.274125      	3.924784e+02
0.27425       	3.924805e+02
0.274375      	3.924826e+02
0.2745        	3.924847e+02
0.274625      	3.924867e+02
0.27475       	3.924888e+02
0.274875      	3.924909e+02
0.275         	3.924929e+02
0.275125      	3.924950e+02
0.27525       	3.924971e+02
0.275375      	3.924991e+02
0.2755        	3.925012e+02
0.275625      	3.925033e+02
0.27575       	3.925053e+02
0.275875      	3.925074e+02
0.276         	3.925095e+02
0.276125      	3.925115e+02
0.27625       	3.925136e+02
0.276375      	3.925157e+02
0.2765        	3.925178e+02
0.276625      	3.925198e+02
0.27675       	3.925219e+02
0.276875      	3.925240e+02
0.277         	3.925261e+02
0.277125      	3.925282e+02
0.27725       	3.925302e+02
0.277375      	3.925323e+02
0.2775        	3.925344e+02
0.277625      	3.925365e+02
0.27775       	3.925386e+02
0.277875      	3.925407e+02
0.278         	3.925428e+02
0.278125      	3.925449e+02
0.27825       	3.925470e+02
0.278375      	3.925491e+02
0.2785        	3.925512e+02
0.278625      	3.925533e+02
0.27875       	3.925554e+02
0.278875      	3.925575e+02
0.279         	3.925597e+02
0.279125      	3.925618e+02
0.27925       	3.925639e+02
0.279375      	3.925661e+02
0.2795        	3.925682e+02
0.279625      	3.925704e+02
0.27975       	3.925726e+02
0.279875      	3.925748e+02
0.28          	3.925770e+02
0.280125      	3.925791e+02
0.28025       	3.925814e+02
0.280375      	3.925836e+02
0.2805        	3.925858e+02
0.280625      	3.925880e+02
0.28075       	3.925903e+02
0.280875      	3.925925e+02
0.281         	3.925948e+02
0.281125      	3.925970e+02
0.28125       	3.925993e+02
0.281375      	3.926016e+02
0.2815        	3.926038e+02
0.281625      	3.926061e+02
0.28175       	3.926084e+02
0.281875      	3.926106e+02
0.282         	3.926129e+02
0.282125      	3.926151e+02
0.28225       	3.926174e+02
0.282375      	3.926196e+02
0.2825        	3.926219e+02
0.282625      	3.926241e+02
0.28275       	3.926263e+02
0.282875      	3.926285e+02
0.283         	3.926307e+02
0.283125      	3.926329e+02
0.28325       	3.926351e+02
0.283375      	3.926373e+02
0.2835        	3.926395e+02
0.283625      	3.926416e+02
0.28375       	3.926438e+02
0.283875      	3.926459e+02
0.284         	3.926480e+02
0.284125      	3.926501e+02
0.28425       	3.926522e+02
0.284375      	3.926543e+02
0.2845        	3.926564e+02
0.284625      	3.926584e+02
0.28475       	3.926605e+02
0.284875      	3.926625e+02
0.285         	3.926645e+02
0.285125      	3.926665e+02
0.28525       	3.926686e+02
0.285375      	3.926706e+02
0.2855        	3.926725e+02
0.285625      	3.926745e+02
0.28575       	3.926765e+02
0.285875      	3.926785e+02
0.286         	3.926804e+02
0.286125      	3.926824e+02
0.28625       	3.926843e+02
0.286375      	3.926863e+02
0.2865        	3.926882e+02
0.286625      	3.926902e+02
0.28675       	3.926921e+02
0.286875      	3.926940e+02
0.287         	3.926960e+02
0.287125      	3.926979e+02
0.28725       	3.926998e+02
0.287375      	3.927018e+02
0.2875        	3.927037e+02
0.287625      	3.927057e+02
0.28775       	3.927076e+02
0.287875      	3.927096e+02
0.288         	3.927115e+02
0.288125      	3.927135e+02
0.28825       	3.927155e+02
0.288375      	3.927175e+02
0.2885        	3.927195e+02
0.288625      	3.927215e+02
0.28875       	3.927235e+02
0.288875      	3.927256e+02
0.289         	3.927276e+02
0.289125      	3.927297e+02
0.28925       	3.927318e+02
0.289375      	3.927339e+02
0.2895        	3.927360e+02
0.289625      	3.927382e+02
0.28975       	3.927404e+02
0.289875      	3.927425e+02
0.29          	3.927448e+02
0.290125      	3.927470e+02
0.29025       	3.927492e+02
0.290375      	3.927515e+02
0.2905        	3.927538e+02
0.290625      	3.927561e+02
0.29075       	3.927584e+02
0.290875      	3.927607e+02
0.291         	3.927631e+02
0.291125      	3.927654e+02
0.29125       	3.927678e+02
0.291375      	3.927702e+02
0.2915        	3.927726e+02
0.291625      	3.927750e+02
0.29175       	3.927774e+02
0.291875      	3.927798e+02
0.292         	3.927822e+02
0.292125      	3.927846e+02
0.29225       	3.927870e+02
0.292375      	3.927894e+02
0.2925        	3.927918e+02
0.292625      	3.927942e+02
0.29275       	3.927965e+02
0.292875      	3.927989e+02
0.293         	3.928012e+02
0.293125      	3.928035e+02
0.29325       	3.928059e+02
0.293375      	3.928082e+02
0.2935        	3.928104e+02
0.293625      	3.928127e+02
0.29375       	3.928150e+02
0.293875      	3.928172e+02
0.294         	3.928194e+02
0.294125      	3.928216e+02
0.29425       	3.928238e+02
0.294375      	3.928260e+02
0.2945        	3.928282e+02
0.294625      	3.928303e+02
0.29475       	3.928324e+02
0.294875      	3.928345e+02
0.295         	3.928366e+02
0.295125      	3.928387e+02
0.29525       	3.928408e+02
0.295375      	3.928429e+02
0.2955        	3.928449e+02
0.295625      	3.928470e+02
0.29575       	3.928490e+02
0.295875      	3.928511e+02
0.296         	3.928532e+02
0.296125      	3.928552e+02
0.29625       	3.928573e+02
0.296375      	3.928593e+02
0.2965        	3.928614e+02
0.296625      	3.928635e+02
0.29675       	3.928655e+02
0.296875      	3.928676e+02
0.297         	3.928697e+02
0.297125      	3.928718e+02
0.29725       	3.928739e+02
0.297375      	3.928760e+02
0.2975        	3.928782e+02
0.297625      	3.928803e+02
0.29775       	3.928825e+02
0.297875      	3.928847e+02
0.298         	3.928869e+02
0.298125      	3.928891e+02
0.29825       	3.928914e+02
0.298375      	3.928936e+02
0.2985        	3.928959e+02
0.298625      	3.928982e+02
0.29875       	3.929006e+02
0.298875      	3.929029e+02
0.299         	3.929053e+02
0.299125      	3.929077e+02
0.29925       	3.929101e+02
0.299375      	3.929126e+02
0.2995        	3.929151e+02
0.299625      	3.929176e+02
0.29975       	3.929201e+02
0.299875      	3.929226e+02
0.3           	3.929252e+02
0.300125      	3.929278e+02
0.30025       	3.929304e+02
0.300375      	3.929331e+02
0.3005        	3.929357e+02
0.300625      	3.929384e+02
0.30075       	3.929411e+02
0.300875      	3.929439e+02
0.301         	3.929466e+02
0.301125      	3.929494e+02
0.30125       	3.929522e+02
0.301375      	3.929550e+02
0.3015        	3.929579e+02
0.301625      	3.929607e+02
0.30175       	3.929636e+02
0.301875      	3.929665e+02
0.302         	3.929693e+02
0.302125      	3.929722e+02
0.30225       	3.929752e+02
0.302375      	3.929781e+02
0.3025        	3.929810e+02
0.302625      	3.929839e+02
0.30275       	3.929869e+02
0.302875      	3.929898e+02
0.303         	3.929927e+02
0.303125      	3.929957e+02
0.30325       	3.929986e+02
0.303375      	3.930015e+02
0.3035        	3.930044e+02
0.303625      	3.930074e+02
0.30375       	3.930103e+02
0.303875      	3.930132e+02
0.304         	3.930161e+02
0.304125      	3.930190e+02
0.30425       	3.930219e+02
0.304375      	3.930248e+02
0.3045        	3.930276e+02
0.304625      	3.930305e+02
0.30475       	3.930333e+02
0.304875      	3.930362e+02
0.305         	3.930390e+02
0.305125      	3.930418e+02
0.30525       	3.930446e+02
0.305375      	3.930474e+02
0.3055        	3.930502e+02
0.305625      	3.930530e+02
0.30575       	3.930558e+02
0.305875      	3.930585e+02
0.306         	3.930613e+02
0.306125      	3.930640e+02
0.30625       	3.930668e+02
0.306375      	3.930695e+02
0.3065        	3.930722e+02
0.306625      	3.930750e+02
0.30675       	3.930777e+02
0.306875      	3.930804e+02
0.307         	3.930831e+02
0.307125      	3.930858e+02
0.30725       	3.930884e+02
0.307375      	3.930911e+02
0.3075        	3.930938e+02
0.307625      	3.930964e+02
0.30775       	3.930991e+02
0.307875      	3.931017e+02
0.308         	3.931044e+02
0.308125      	3.931070e+02
0.30825       	3.931096e+02
0.308375      	3.931122e+02
0.3085        	3.931148e+02
0.308625      	3.931174e+02
0.30875       	3.931200e+02
0.308875      	3.931226e+02
0.309         	3.931252e+02
0.309125      	3.931277e+02
0.30925       	3.931303e+02
0.309375      	3.931329e+02
0.3095        	3.931354e+02
0.309625      	3.931380e+02
0.30975       	3.931405e+02
0.309875      	3.931431e+02
0.31          	3.931456e+02
0.310125      	3.931481e+02
0.31025       	3.931507e+02
0.310375      	3.931532e+02
0.3105        	3.931557e+02
0.310625      	3.931582e+02
0.31075       	3.931608e+02
0.310875      	3.931633e+02
0.311         	3.931658e+02
0.311125      	3.931684e+02
0.31125       	3.931709e+02
0.311375      	3.931734e+02
0.3115        	3.931759e+02
0.311625      	3.931785e+02
0.31175       	3.931810e+02
0.311875      	3.931836e+02
0.312         	3.931861e+02
0.312125      	3.931887e+02
0.31225       	3.931912e+02
0.312375      	3.931938e+02
0.3125        	3.931963e+02
0.312625      	3.931989e+02
0.31275       	3.932014e+02
0.312875      	3.932039e+02
0.313         	3.932065e+02
0.313125      	3.932090e+02
0.31325       	3.932115e+02
0.313375      	3.932140e+02
0.3135        	3.932165e+02
0.313625      	3.932190e+02
0.31375       	3.932215e+02
0.313875      	3.932240e+02
0.314         	3.932264e+02
0.314125      	3.932289e+02
0.31425       	3.932313e+02
0.314375      	3.932338e+02
0.3145        	3.932362e+02
0.314625      	3.932385e+02
0.31475       	3.932409e+02
0.314875      	3.932432e+02
0.315         	3.932456e+02
0.315125      	3.932479e+02
0.31525       	3.932502e+02
0.315375      	3.932525e+02
0.3155        	3.932547e+02
0.315625      	3.932570e+02
0.31575       	3.932592e+02
0.315875      	3.932614e+02
0.316         	3.932636e+02
0.316125      	3.932658e+02
0.31625       	3.932680e+02
0.316375      	3.932701e+02
0.3165        	3.932722e+02
0.316625      	3.932744e+02
0.31675       	3.932765e+02
0.316875      	3.932785e+02
0.317         	3.932806e+02
0.317125      	3.932827e+02
0.31725       	3.932847e+02
0.317375      	3.932867e+02
0.3175        	3.932887e+02
0.317625      	3.932907e+02
0.31775       	3.932927e+02
0.317875      	3.932946e+02
0.318         	3.932966e+02
0.318125      	3.932985e+02
0.31825       	3.933004e+02
0.318375      	3.933023e+02
0.3185        	3.933042e+02
0.318625      	3.933060e+02
0.31875       	3.933079e+02
0.318875      	3.933098e+02
0.319         	3.933116e+02
0.319125      	3.933134e+02
0.31925       	3.933152e+02
0.319375      	3.933170e+02
0.3195        	3.933188e+02
0.319625      	3.933206e+02
0.31975       	3.933224e+02
0.319875      	3.933241e+02
0.32          	3.933259e+02
0.320125      	3.933276e+02
0.32025       	3.933294e+02
0.320375      	3.933311e+02
0.3205        	3.933329e+02
0.320625      	3.933346e+02
0.32075       	3.933363e+02
0.320875      	3.933381e+02
0.321         	3.933398e+02
0.321125      	3.933415e+02
0.32125       	3.933433e+02
0.321375      	3.933450e+02
0.3215        	3.933467e+02
0.321625      	3.933485e+02
0.32175       	3.933502e+02
0.321875      	3.933520e+02
0.322         	3.933537e+02
0.322125      	3.933555e+02
0.32225       	3.933573e+02
0.322375      	3.933591e+02
0.3225        	3.933609e+02
0.322625      	3.933627e+02
0.32275       	3.933645e+02
0.322875      	3.933663e+02
0.323         	3.933682e+02
0.323125      	3.933700e+02
0.32325       	3.933719e+02
0.323375      	3.933738e+02
0.3235        	3.933756e+02
0.323625      	3.933775e+02
0.32375       	3.933794e+02
0.323875      	3.933812e+02
0.324         	3.933831e+02
0.324125      	3.933850e+02
0.32425       	3.933868e+02
0.324375      	3.933887e+02
0.3245        	3.933905e+02
0.324625      	3.933923e+02
0.32475       	3.933942e+02
0.324875      	3.933960e+02
0.325         	3.933978e+02
0.325125      	3.933996e+02
0.32525       	3.934015e+02
0.325375      	3.934032e+02
0.3255        	3.934050e+02
0.325625      	3.934068e+02
0.32575       	3.934086e+02
0.325875      	3.934103e+02
0.326         	3.934120e+02
0.326125      	3.934138e+02
0.32625       	3.934155e+02
0.326375      	3.934172e+02
0.3265        	3.934189e+02
0.326625      	3.934206e+02
0.32675       	3.934223e+02
0.326875      	3.934240e+02
0.327         	3.934257e+02
0.327125      	3.934274e+02
0.32725       	3.934290e+02
0.327375      	3.934307e+02
0.3275        	3.934323e+02
0.327625      	3.934340e+02
0.32775       	3.934356e+02
0.327875      	3.934372e+02
0.328         	3.934388e+02
0.328125      	3.934404e+02
0.32825       	3.934420e+02
0.328375      	3.934436e+02
0.3285        	3.934452e+02
0.328625      	3.934467e+02
0.32875       	3.934483e+02
0.328875      	3.934498e+02
0.329         	3.934514e+02
0.329125      	3.934529e+02
0.32925       	3.934544e+02
0.329375      	3.934560e+02
0.3295        	3.934575e+02
0.329625      	3.934590e+02
0.32975       	3.934604e+02
0.329875      	3.934619e+02
0.33          	3.934634e+02
0.330125      	3.934648e+02
0.33025       	3.934663e+02
0.330375      	3.934677e+02
0.3305        	3.934692e+02
0.330625      	3.934706e+02
0.33075       	3.934721e+02
0.330875      	3.934735e+02
0.331         	3.934749e+02
0.331125      	3.934763e+02
0.33125       	3.934778e+02
0.331375      	3.934792e+02
0.3315        	3.934806e+02
0.331625      	3.934820e+02
0.33175       	3.934835e+02
0.331875      	3.934849e+02
0.332         	3.934863e+02
0.332125      	3.934878e+02
0.33225       	3.934892e+02
0.332375      	3.934907e+02
0.3325        	3.934922e+02
0.332625      	3.934936e+02
0.33275       	3.934951e+02
0.332875      	3.934966e+02
0.333         	3.934981e+02
0.333125      	3.934997e+02
0.33325       	3.935012e+02
0.333375      	3.935028e+02
0.3335        	3.935044e+02
0.333625      	3.935060e+02
0.33375       	3.935076e+02
0.333875      	3.935092e+02
0.334         	3.935108e+02
0.334125      	3.935124e+02
0.33425       	3.935141e+02
0.334375      	3.935157e+02
0.3345        	3.935174e+02
0.334625      	3.935190e+02
0.33475       	3.935206e+02
0.334875      	3.935223e+02
0.335         	3.935239e+02
0.335125      	3.935255e+02
0.33525       	3.935272e+02
0.335375      	3.935288e+02
0.3355        	3.935304e+02
0.335625      	3.935321e+02
0.33575       	3.935337e+02
0.335875      	3.935353e+02
0.336         	3.935369e+02
0.336125      	3.935385e+02
0.33625       	3.935401e+02
0.336375      	3.935417e+02
0.3365        	3.935432e+02
0.336625      	3.935448e+02
0.33675       	3.935463e+02
0.336875      	3.935479e+02
0.337         	3.935494e+02
0.337125      	3.935509e+02
0.33725       	3.935524e+02
0.337375      	3.935540e+02
0.3375        	3.935555e+02
0.337625      	3.935570e+02
0.33775       	3.935585e+02
0.337875      	3.935599e+02
0.338         	3.935614e+02
0.338125      	3.935629e+02
0.33825       	3.935644e+02
0.338375      	3.935658e+02
0.3385        	3.935672e+02
0.338625      	3.935687e+02
0.33875       	3.935701e+02
0.338875      	3.935715e+02
0.339         	3.935729e+02
0.339125      	3.935743e+02
0.33925       	3.935757e+02
0.339375      	3.935771e+02
0.3395        	3.935785e+02
0.339625      	3.935799e+02
0.33975       	3.935812e+02
0.339875      	3.935826e+02
0.34          	3.935839e+02
0.340125      	3.935853e+02
0.34025       	3.935866e+02
0.340375      	3.935879e+02
0.3405        	3.935892e+02
0.340625      	3.935905e+02
0.34075       	3.935918e+02
0.340875      	3.935931e+02
0.341         	3.935944e+02
0.341125      	3.935957e+02
0.34125       	3.935970e+02
0.341375      	3.935983e+02
0.3415        	3.935995e+02
0.341625      	3.936008e+02
0.34175       	3.936021e+02
0.341875      	3.936034e+02
0.342         	3.936047e+02
0.342125      	3.936059e+02
0.34225       	3.936072e+02
0.342375      	3.936085e+02
0.3425        	3.936099e+02
0.342625      	3.936112e+02
0.34275       	3.936125e+02
0.342875      	3.936138e+02
0.343         	3.936152e+02
0.343125      	3.936165e+02
0.34325       	3.936179e+02
0.343375      	3.936193e+02
0.3435        	3.936207e+02
0.343625      	3.936221e+02
0.34375       	3.936235e+02
0.343875      	3.936250e+02
0.344         	3.936265e+02
0.344125      	3.936280e+02
0.34425       	3.936295e+02
0.344375      	3.936311e+02
0.3445        	3.936326e+02
0.344625      	3.936342e+02
0.34475       	3.936358e+02
0.344875      	3.936374e+02
0.345         	3.936390e+02
0.345125      	3.936406e+02
0.34525       	3.936422e+02
0.345375      	3.936439e+02
0.3455        	3.936455e+02
0.345625      	3.936471e+02
0.34575       	3.936487e+02
0.345875      	3.936504e+02
0.346         	3.936520e+02
0.346125      	3.936536e+02
0.34625       	3.936553e+02
0.346375      	3.936569e+02
0.3465        	3.936585e+02
0.346625      	3.936601e+02
0.34675       	3.936617e+02
0.346875      	3.936634e+02
0.347         	3.936650e+02
0.347125      	3.936665e+02
0.34725       	3.936681e+02
0.347375      	3.936697e+02
0.3475        	3.936713e+02
0.347625      	3.936728e+02
0.34775       	3.936744e+02
0.347875      	3.936759e+02
0.348         	3.936775e+02
0.348125      	3.936790e+02
0.34825       	3.936806e+02
0.348375      	3.936821e+02
0.3485        	3.936836e+02
0.348625      	3.936851e+02
0.34875       	3.936866e+02
0.348875      	3.936881e+02
0.349         	3.936896e+02
0.349125      	3.936911e+02
0.34925       	3.936926e+02
0.349375      	3.936940e+02
0.3495        	3.936955e+02
0.349625      	3.936969e+02
0.34975       	3.936983e+02
0.349875      	3.936998e+02
0.35          	3.937012e+02
0.350125      	3.937026e+02
0.35025       	3.937040e+02
0.350375      	3.937053e+02
0.3505        	3.937067e+02
0.350625      	3.937081e+02
0.35075       	3.937094e+02
0.350875      	3.937108e+02
0.351         	3.937121e+02
0.351125      	3.937134e+02
0.35125       	3.937147e+02
0.351375      	3.937160e+02
0.3515        	3.937173e+02
0.351625      	3.937186e+02
0.35175       	3.937198e+02
0.351875      	3.937211e+02
0.352         	3.937223e+02
0.352125      	3.937236e+02
0.35225       	3.937248e+02
0.352375      	3.937260e+02
0.3525        	3.937273e+02
0.352625      	3.937285e+02
0.35275       	3.937297e+02
0.352875      	3.937309e+02
0.353         	3.937322e+02
0.353125      	3.937334e+02
0.35325       	3.937346e+02
0.353375      	3.937359e+02
0.3535        	3.937371e+02
0.353625      	3.937384e+02
0.35375       	3.937397e+02
0.353875      	3.937409e+02
0.354         	3.937422e+02
0.354125      	3.937435e+02
0.35425       	3.937448e+02
0.354375      	3.937462e+02
0.3545        	3.937475e+02
0.354625      	3.937489e+02
0.35475       	3.937503e+02
0.354875      	3.937517e+02
0.355         	3.937531e+02
0.355125      	3.937545e+02
0.35525       	3.937559e+02
0.355375      	3.937574e+02
0.3555        	3.937589e+02
0.355625      	3.937604e+02
0.35575       	3.937618e+02
0.355875      	3.937633e+02
0.356         	3.937648e+02
0.356125      	3.937663e+02
0.35625       	3.937678e+02
0.356375      	3.937693e+02
0.3565        	3.937708e+02
0.356625      	3.937723e+02
0.35675       	3.937738e+02
0.356875      	3.937753e+02
0.357         	3.937767e+02
0.357125      	3.937782e+02
0.35725       	3.937797e+02
0.357375      	3.937812e+02
0.3575        	3.937826e+02
0.357625      	3.937841e+02
0.35775       	3.937855e+02
0.357875      	3.937870e+02
0.358         	3.937884e+02
0.358125      	3.937898e+02
0.35825       	3.937912e+02
0.358375      	3.937926e+02
0.3585        	3.937940e+02
0.358625      	3.937954e+02
0.35875       	3.937967e+02
0.358875      	3.937981e+02
0.359         	3.937994e+02
0.359125      	3.938008e+02
0.35925       	3.938021e+02
0.359375      	3.938034e+02
0.3595        	3.938047e+02
0.359625      	3.938060e+02
0.35975       	3.938073e+02
0.359875      	3.938086e+02
0.36          	3.938098e+02
0.360125      	3.938111e+02
0.36025       	3.938123e+02
0.360375      	3.938135e+02
0.3605        	3.938147e+02
0.360625      	3.938159e+02
0.36075       	3.938171e+02
0.360875      	3.938183e+02
0.361         	3.938195e+02
0.361125      	3.938207e+02
0.36125       	3.938218e+02
0.361375      	3.938230e+02
0.3615        	3.938241e+02
0.361625      	3.938252e+02
0.36175       	3.938263e+02
0.361875      	3.938274e+02
0.362         	3.938285e+02
0.362125      	3.938296e+02
0.36225       	3.938307e+02
0.362375      	3.938318e+02
0.3625        	3.938328e+02
0.362625      	3.938339e+02
0.36275       	3.938350e+02
0.362875      	3.938360e+02
0.363         	3.938371e+02
0.363125      	3.938381e+02
0.36325       	3.938392e+02
0.363375      	3.938402e+02
0.3635        	3.938413e+02
0.363625      	3.938423e+02
0.36375       	3.938434e+02
0.363875      	3.938444e+02
0.364         	3.938455e+02
0.364125      	3.938466e+02
0.36425       	3.938477e+02
0.364375      	3.938489e+02
0.3645        	3.938500e+02
0.364625      	3.938511e+02
0.36475       	3.938523e+02
0.364875      	3.938535e+02
0.365         	3.938547e+02
0.365125      	3.938559e+02
0.36525       	3.938572e+02
0.365375      	3.938585e+02
0.3655        	3.938598e+02
0.365625      	3.938611e+02
0.36575       	3.938625e+02
0.365875      	3.938638e+02
0.366         	3.938652e+02
0.366125      	3.938666e+02
0.36625       	3.938681e+02
0.366375      	3.938695e+02
0.3665        	3.938710e+02
0.366625      	3.938724e+02
0.36675       	3.938739e+02
0.366875      	3.938754e+02
0.367         	3.938769e+02
0.367125      	3.938784e+02
0.36725       	3.938799e+02
0.367375      	3.938814e+02
0.3675        	3.938829e+02
0.367625      	3.938844e+02
0.36775       	3.938859e+02
0.367875      	3.938874e+02
0.368         	3.938890e+02
0.368125      	3.938905e+02
0.36825       	3.938920e+02
0.368375      	3.938935e+02
0.3685        	3.938950e+02
0.368625      	3.938965e+02
0.36875       	3.938980e+02
0.368875      	3.938995e+02
0.369         	3.939009e+02
0.369125      	3.939024e+02
0.36925       	3.939039e+02
0.369375      	3.939053e+02
0.3695        	3.939067e+02
0.369625      	3.939082e+02
0.36975       	3.939096e+02
0.369875      	3.939110e+02
0.37          	3.939124e+02
0.370125      	3.939138e+02
0.37025       	3.939152e+02
0.370375      	3.939165e+02
0.3705        	3.939179e+02
0.370625      	3.939192e+02
0.37075       	3.939206e+02
0.370875      	3.939219e+02
0.371         	3.939232e+02
0.371125      	3.939245e+02
0.37125       	3.939258e+02
0.371375      	3.939271e+02
0.3715        	3.939283e+02
0.371625      	3.939296e+02
0.37175       	3.939308e+02
0.371875      	3.939320e+02
0.372         	3.939332e+02
0.372125      	3.939344e+02
0.37225       	3.939356e+02
0.372375      	3.939368e+02
0.3725        	3.939379e+02
0.372625      	3.939391e+02
0.37275       	3.939402e+02
0.372875      	3.939413e+02
0.373         	3.939424e+02
0.373125      	3.939435e+02
0.37325       	3.939446e+02
0.373375      	3.939457e+02
0.3735        	3.939468e+02
0.373625      	3.939478e+02
0.37375       	3.939489e+02
0.373875      	3.939499e+02
0.374         	3.939510e+02
0.374125      	3.939520e+02
0.37425       	3.939530e+02
0.374375      	3.939541e+02
0.3745        	3.939551e+02
0.374625      	3.939561e+02
0.37475       	3.939572e+02
0.374875      	3.939582e+02
0.375         	3.939593e+02
0.375125      	3.939603e+02
0.37525       	3.939614e+02
0.375375      	3.939625e+02
0.3755        	3.939636e+02
0.375625      	3.939647e+02
0.37575       	3.939659e+02
0.375875      	3.939670e+02
0.376         	3.939682e+02
0.376125      	3.939694e+02
0.37625       	3.939706e+02
0.376375      	3.939719e+02
0.3765        	3.939731e+02
0.376625      	3.939744e+02
0.37675       	3.939757e+02
0.376875      	3.939770e+02
0.377         	3.939784e+02
0.377125      	3.939797e+02
0.37725       	3.939811e+02
0.377375      	3.939824e+02
0.3775        	3.939838e+02
0.377625      	3.939852e+02
0.37775       	3.939865e+02
0.377875      	3.939879e+02
0.378         	3.939893e+02
0.378125      	3.939907e+02
0.37825       	3.939921e+02
0.378375      	3.939935e+02
0.3785        	3.939949e+02
0.378625      	3.939963e+02
0.37875       	3.939976e+02
0.378875      	3.939990e+02
0.379         	3.940004e+02
0.379125      	3.940018e+02
0.37925       	3.940032e+02
0.379375      	3.940045e+02
0.3795        	3.940059e+02
0.379625      	3.940072e+02
0.37975       	3.940085e+02
0.379875      	3.940098e+02
0.38          	3.940111e+02
0.380125      	3.940124e+02
0.38025       	3.940137e+02
0.380375      	3.940149e+02
0.3805        	3.940161e+02
0.380625      	3.940173e+02
0.38075       	3.940185e+02
0.380875      	3.940197e+02
0.381         	3.940208e+02
0.381125      	3.940219e+02
0.38125       	3.940231e+02
0.381375      	3.940242e+02
0.3815        	3.940252e+02
0.381625      	3.940263e+02
0.38175       	3.940274e+02
0.381875      	3.940284e+02
0.382         	3.940294e+02
0.382125      	3.940304e+02
0.38225       	3.940314e+02
0.382375      	3.940323e+02
0.3825        	3.940333e+02
0.382625      	3.940342e+02
0.38275       	3.940351e+02
0.382875      	3.940360e+02
0.383         	3.940369e+02
0.383125      	3.940378e+02
0.38325       	3.940386e+02
0.383375      	3.940395e+02
0.3835        	3.940403e+02
0.383625      	3.940412e+02
0.38375       	3.940420e+02
0.383875      	3.940428e+02
0.384         	3.940436e+02
0.384125      	3.940444e+02
0.38425       	3.940453e+02
0.384375      	3.940460e+02
0.3845        	3.940468e+02
0.384625      	3.940476e+02
0.38475       	3.940484e+02
0.384875      	3.940492e+02
0.385         	3.940500e+02
0.385125      	3.940508e+02
0.38525       	3.940516e+02
0.385375      	3.940524e+02
0.3855        	3.940533e+02
0.385625      	3.940541e+02
0.38575       	3.940549e+02
0.385875      	3.940558e+02
0.386         	3.940567e+02
0.386125      	3.940576e+02
0.38625       	3.940585e+02
0.386375      	3.940595e+02
0.3865        	3.940605e+02
0.386625      	3.940615e+02
0.38675       	3.940626e+02
0.386875      	3.940636e+02
0.387         	3.940648e+02
0.387125      	3.940659e+02
0.38725       	3.940671e+02
0.387375      	3.940683e+02
0.3875        	3.940695e+02
0.387625      	3.940708e+02
0.38775       	3.940720e+02
0.387875      	3.940733e+02
0.388         	3.940746e+02
0.388125      	3.940760e+02
0.38825       	3.940773e+02
0.388375      	3.940786e+02
0.3885        	3.940800e+02
0.388625      	3.940813e+02
0.38875       	3.940827e+02
0.388875      	3.940841e+02
0.389         	3.940855e+02
0.389125      	3.940869e+02
0.38925       	3.940883e+02
0.389375      	3.940898e+02
0.3895        	3.940912e+02
0.389625      	3.940926e+02
0.38975       	3.940941e+02
0.389875      	3.940955e+02
0.39          	3.940970e+02
0.390125      	3.940984e+02
0.39025       	3.940998e+02
0.390375      	3.941012e+02
0.3905        	3.941026e+02
0.390625      	3.941040e+02
0.39075       	3.941054e+02
0.390875      	3.941067e+02
0.391         	3.941080e+02
0.391125      	3.941094e+02
0.39125       	3.941106e+02
0.391375      	3.941119e+02
0.3915        	3.941132e+02
0.391625      	3.941144e+02
0.39175       	3.941156e+02
0.391875      	3.941168e+02
0.392         	3.941180e+02
0.392125      	3.941191e+02
0.39225       	3.941203e+02
0.392375      	3.941214e+02
0.3925        	3.941225e+02
0.392625      	3.941236e+02
0.39275       	3.941246e+02
0.392875      	3.941257e+02
0.393         	3.941267e+02
0.393125      	3.941277e+02
0.39325       	3.941286e+02
0.393375      	3.941296e+02
0.3935        	3.941305e+02
0.393625      	3.941315e+02
0.39375       	3.941324e+02
0.393875      	3.941333e+02
0.394         	3.941341e+02
0.394125      	3.941350e+02
0.39425       	3.941359e+02
0.394375      	3.941368e+02
0.3945        	3.941376e+02
0.394625      	3.941385e+02
0.39475       	3.941393e+02
0.394875      	3.941401e+02
0.395         	3.941409e+02
0.395125      	3.941417e+02
0.39525       	3.941425e+02
0.395375      	3.941433e+02
0.3955        	3.941441e+02
0.395625      	3.941449e+02
0.39575       	3.941457e+02
0.395875      	3.941465e+02
0.396         	3.941472e+02
0.396125      	3.941480e+02
0.39625       	3.941488e+02
0.396375      	3.941496e+02
0.3965        	3.941504e+02
0.396625      	3.941512e+02
0.39675       	3.941520e+02
0.396875      	3.941529e+02
0.397         	3.941538e+02
0.397125      	3.941546e+02
0.39725       	3.941556e+02
0.397375      	3.941565e+02
0.3975        	3.941575e+02
0.397625      	3.941584e+02
0.39775       	3.941595e+02
0.397875      	3.941605e+02
0.398         	3.941616e+02
0.398125      	3.941627e+02
0.39825       	3.941638e+02
0.398375      	3.941650e+02
0.3985        	3.941661e+02
0.398625      	3.941673e+02
0.39875       	3.941685e+02
0.398875      	3.941698e+02
0.399         	3.941710e+02
0.399125      	3.941723e+02
0.39925       	3.941736e+02
0.399375      	3.941749e+02
0.3995        	3.941762e+02
0.399625      	3.941775e+02
0.39975       	3.941788e+02
0.399875      	3.941802e+02
0.4           	3.941815e+02
0.400125      	3.941829e+02
0.40025       	3.941842e+02
0.400375      	3.941856e+02
0.4005        	3.941870e+02
0.400625      	3.941883e+02
0.40075       	3.941897e+02
0.400875      	3.941910e+02
0.401         	3.941923e+02
0.401125      	3.941936e+02
0.40125       	3.941948e+02
0.401375      	3.941960e+02
0.4015        	3.941972e+02
0.401625      	3.941983e+02
0.40175       	3.941995e+02
0.401875      	3.942005e+02
0.402         	3.942016e+02
0.402125      	3.942027e+02
0.40225       	3.942037e+02
0.402375      	3.942047e+02
0.4025        	3.942057e+02
0.402625      	3.942066e+02
0.40275       	3.942075e+02
0.402875      	3.942084e+02
0.403         	3.942093e+02
0.403125      	3.942101e+02
0.40325       	3.942110e+02
0.403375      	3.942117e+02
0.4035        	3.942125e+02
0.403625      	3.942132e+02
0.40375       	3.942139e+02
0.403875      	3.942146e+02
0.404         	3.942153e+02
0.404125      	3.942159e+02
0.40425       	3.942166e+02
0.404375      	3.942172e+02
0.4045        	3.942178e+02
0.404625      	3.942184e+02
0.40475       	3.942190e+02
0.404875      	3.942196e+02
0.405         	3.942201e+02
0.405125      	3.942207e+02
0.40525       	3.942213e+02
0.405375      	3.942218e+02
0.4055        	3.942224e+02
0.405625      	3.942230e+02
0.40575       	3.942235e+02
0.405875      	3.942241e+02
0.406         	3.942246e+02
0.406125      	3.942252e+02
0.40625       	3.942257e+02
0.406375      	3.942263e+02
0.4065        	3.942268e+02
0.406625      	3.942274e+02
0.40675       	3.942279e+02
0.406875      	3.942285e+02
0.407         	3.942291e+02
0.407125      	3.942297e+02
0.40725       	3.942303e+02
0.407375      	3.942309e+02
0.4075        	3.942316e+02
0.407625      	3.942322e+02
0.40775       	3.942329e+02
0.407875      	3.942337e+02
0.408         	3.942344e+02
0.408125      	3.942352e+02
0.40825       	3.942360e+02
0.408375      	3.942369e+02
0.4085        	3.942378e+02
0.408625      	3.942388e+02
0.40875       	3.942398e+02
0.408875      	3.942408e+02
0.409         	3.942419e+02
0.409125      	3.942431e+02
0.40925       	3.942442e+02
0.409375      	3.942454e+02
0.4095        	3.942467e+02
0.409625      	3.942479e+02
0.40975       	3.942492e+02
0.409875      	3.942505e+02
0.41          	3.942518e+02
0.410125      	3.942531e+02
0.41025       	3.942545e+02
0.410375      	3.942559e+02
0.4105        	3.942573e+02
0.410625      	3.942587e+02
0.41075       	3.942602e+02
0.410875      	3.942616e+02
0.411         	3.942631e+02
0.411125      	3.942646e+02
0.41125       	3.942661e+02
0.411375      	3.942675e+02
0.4115        	3.942690e+02
0.411625      	3.942704e+02
0.41175       	3.942718e+02
0.411875      	3.942732e+02
0.412         	3.942746e+02
0.412125      	3.942759e+02
0.41225       	3.942772e+02
0.412375      	3.942785e+02
0.4125        	3.942797e+02
0.412625      	3.942809e+02
0.41275       	3.942821e+02
0.412875      	3.942832e+02
0.413         	3.942843e+02
0.413125      	3.942853e+02
0.41325       	3.942863e+02
0.413375      	3.942873e+02
0.4135        	3.942883e+02
0.413625      	3.942892e+02
0.41375       	3.942901e+02
0.413875      	3.942910e+02
0.414         	3.942918e+02
0.414125      	3.942926e+02
0.41425       	3.942934e+02
0.414375      	3.942941e+02
0.4145        	3.942948e+02
0.414625      	3.942955e+02
0.41475       	3.942962e+02
0.414875      	3.942969e+02
0.415         	3.942975e+02
0.415125      	3.942981e+02
0.41525       	3.942988e+02
0.415375      	3.942994e+02
0.4155        	3.943000e+02
0.415625      	3.943006e+02
0.41575       	3.943012e+02
0.415875      	3.943017e+02
0.416         	3.943023e+02
0.416125      	3.943029e+02
0.41625       	3.943035e+02
0.416375      	3.943041e+02
0.4165        	3.943046e+02
0.416625      	3.943052e+02
0.41675       	3.943058e+02
0.416875      	3.943064e+02
0.417         	3.943069e+02
0.417125      	3.943075e+02
0.41725       	3.943080e+02
0.417375      	3.943085e+02
0.4175        	3.943091e+02
0.417625      	3.943096e+02
0.41775       	3.943102e+02
0.417875      	3.943107e+02
0.418         	3.943113e+02
0.418125      	3.943119e+02
0.41825       	3.943125e+02
0.418375      	3.943131e+02
0.4185        	3.943138e+02
0.418625      	3.943144e+02
0.41875       	3.943152e+02
0.418875      	3.943159e+02
0.419         	3.943167e+02
0.419125      	3.943175e+02
0.41925       	3.943184e+02
0.419375      	3.943194e+02
0.4195        	3.943204e+02
0.419625      	3.943214e+02
0.41975       	3.943225e+02
0.419875      	3.943236e+02
0.42          	3.943248e+02
0.420125      	3.943260e+02
0.42025       	3.943272e+02
0.420375      	3.943285e+02
0.4205        	3.943298e+02
0.420625      	3.943311e+02
0.42075       	3.943324e+02
0.420875      	3.943338e+02
0.421         	3.943352e+02
0.421125      	3.943366e+02
0.42125       	3.943381e+02
0.421375      	3.943396e+02
0.4215        	3.943411e+02
0.421625      	3.943426e+02
0.42175       	3.943441e+02
0.421875      	3.943456e+02
0.422         	3.943471e+02
0.422125      	3.943486e+02
0.42225       	3.943503e+02
0.422375      	3.943517e+02
0.4225        	3.943534e+02
0.422625      	3.943548e+02
0.42275       	3.943564e+02
0.422875      	3.943577e+02
0.423         	3.943592e+02
0.423125      	3.943604e+02
0.42325       	3.943618e+02
0.423375      	3.943629e+02
0.4235        	3.943642e+02
0.423625      	3.943652e+02
0.42375       	3.943663e+02
0.423875      	3.943671e+02
0.424         	3.943681e+02
0.424125      	3.943690e+02
0.42425       	3.943698e+02
0.424375      	3.943706e+02
0.4245        	3.943713e+02
0.424625      	3.943720e+02
0.42475       	3.943726e+02
0.424875      	3.943732e+02
0.425         	3.943738e+02
0.425125      	3.943743e+02
0.42525       	3.943748e+02
0.425375      	3.943753e+02
0.4255        	3.943758e+02
0.425625      	3.943762e+02
0.42575       	3.943767e+02
0.425875      	3.943771e+02
0.426         	3.943776e+02
0.426125      	3.943780e+02
0.42625       	3.943785e+02
0.426375      	3.943790e+02
0.4265        	3.943794e+02
0.426625      	3.943799e+02
0.42675       	3.943804e+02
0.426875      	3.943809e+02
0.427         	3.943813e+02
0.427125      	3.943818e+02
0.42725       	3.943823e+02
0.427375      	3.943828e+02
0.4275        	3.943833e+02
0.427625      	3.943838e+02
0.42775       	3.943843e+02
0.427875      	3.943848e+02
0.428         	3.943853e+02
0.428125      	3.943859e+02
0.42825       	3.943864e+02
0.428375      	3.943870e+02
0.4285        	3.943875e+02
0.428625      	3.943881e+02
0.42875       	3.943886e+02
0.428875      	3.943894e+02
0.429         	3.943900e+02
0.429125      	3.943908e+02
0.42925       	3.943916e+02
0.429375      	3.943926e+02
0.4295        	3.943934e+02
0.429625      	3.943946e+02
0.42975       	3.943956e+02
0.429875      	3.943969e+02
0.43          	3.943979e+02
0.430125      	3.943994e+02
0.43025       	3.944006e+02
0.430375      	3.944021e+02
0.4305        	3.944037e+02
0.430625      	3.944054e+02
0.43075       	3.944071e+02
0.430875      	3.944089e+02
0.431         	3.944108e+02
0.431125      	3.944127e+02
0.43125       	3.944146e+02
0.431375      	3.944166e+02
0.4315        	3.944185e+02
0.431625      	3.944205e+02
0.43175       	3.944225e+02
0.431875      	3.944244e+02
0.432         	3.944264e+02
0.432125      	3.944283e+02
0.43225       	3.944302e+02
0.432375      	3.944320e+02
0.4325        	3.944337e+02
0.432625      	3.944355e+02
0.43275       	3.944372e+02
0.432875      	3.944388e+02
0.433         	3.944404e+02
0.433125      	3.944419e+02
0.43325       	3.944433e+02
0.433375      	3.944447e+02
0.4335        	3.944460e+02
0.433625      	3.944472e+02
0.43375       	3.944483e+02
0.433875      	3.944493e+02
0.434         	3.944503e+02
0.434125      	3.944512e+02
0.43425       	3.944520e+02
0.434375      	3.944528e+02
0.4345        	3.944535e+02
0.434625      	3.944542e+02
0.43475       	3.944548e+02
0.434875      	3.944554e+02
0.435         	3.944560e+02
0.435125      	3.944566e+02
0.43525       	3.944572e+02
0.435375      	3.944577e+02
0.4355        	3.944582e+02
0.435625      	3.944587e+02
0.43575       	3.944592e+02
0.435875      	3.944596e+02
0.436         	3.944601e+02
0.436125      	3.944605e+02
0.43625       	3.944609e+02
0.436375      	3.944613e+02
0.4365        	3.944618e+02
0.436625      	3.944622e+02
0.43675       	3.944626e+02
0.436875      	3.944630e+02
0.437         	3.944633e+02
0.437125      	3.944637e+02
0.43725       	3.944641e+02
0.437375      	3.944645e+02
0.4375        	3.944649e+02
0.437625      	3.944653e+02
0.43775       	3.944657e+02
0.437875      	3.944661e+02
0.438         	3.944665e+02
0.438125      	3.944669e+02
0.43825       	3.944674e+02
0.438375      	3.944678e+02
0.4385        	3.944682e+02
0.438625      	3.944687e+02
0.43875       	3.944693e+02
0.438875      	3.944698e+02
0.439         	3.944704e+02
0.439125      	3.944711e+02
0.43925       	3.944719e+02
0.439375      	3.944727e+02
0.4395        	3.944736e+02
0.439625      	3.944745e+02
0.43975       	3.944756e+02
0.439875      	3.944766e+02
0.44          	3.944777e+02
0.440125      	3.944789e+02
0.44025       	3.944802e+02
0.440375      	3.944815e+02
0.4405        	3.944829e+02
0.440625      	3.944843e+02
0.44075       	3.944857e+02
0.440875      	3.944873e+02
0.441         	3.944888e+02
0.441125      	3.944904e+02
0.44125       	3.944921e+02
0.441375      	3.944938e+02
0.4415        	3.944955e+02
0.441625      	3.944973e+02
0.44175       	3.944990e+02
0.441875      	3.945007e+02
0.442         	3.945025e+02
0.442125      	3.945042e+02
0.44225       	3.945059e+02
0.442375      	3.945076e+02
0.4425        	3.945092e+02
0.442625      	3.945108e+02
0.44275       	3.945124e+02
0.442875      	3.945139e+02
0.443         	3.945154e+02
0.443125      	3.945168e+02
0.44325       	3.945181e+02
0.443375      	3.945194e+02
0.4435        	3.945206e+02
0.443625      	3.945217e+02
0.44375       	3.945228e+02
0.443875      	3.945238e+02
0.444         	3.945248e+02
0.444125      	3.945256e+02
0.44425       	3.945263e+02
0.444375      	3.945270e+02
0.4445        	3.945276e+02
0.444625      	3.945282e+02
0.44475       	3.945287e+02
0.444875      	3.945292e+02
0.445         	3.945296e+02
0.445125      	3.945301e+02
0.44525       	3.945305e+02
0.445375      	3.945308e+02
0.4455        	3.945312e+02
0.445625      	3.945316e+02
0.44575       	3.945319e+02
0.445875      	3.945322e+02
0.446         	3.945325e+02
0.446125      	3.945328e+02
0.44625       	3.945331e+02
0.446375      	3.945335e+02
0.4465        	3.945338e+02
0.446625      	3.945341e+02
0.44675       	3.945344e+02
0.446875      	3.945347e+02
0.447         	3.945350e+02
0.447125      	3.945353e+02
0.44725       	3.945356e+02
0.447375      	3.945359e+02
0.4475        	3.945362e+02
0.447625      	3.945366e+02
0.44775       	3.945369e+02
0.447875      	3.945373e+02
0.448         	3.945377e+02
0.448125      	3.945381e+02
0.44825       	3.945385e+02
0.448375      	3.945390e+02
0.4485        	3.945395e+02
0.448625      	3.945400e+02
0.44875       	3.945405e+02
0.448875      	3.945410e+02
0.449         	3.945416e+02
0.449125      	3.945422e+02
0.44925       	3.945429e+02
0.449375      	3.945437e+02
0.4495        	3.945444e+02
0.449625      	3.945453e+02
0.44975       	3.945462e+02
0.449875      	3.945472e+02
0.45          	3.945483e+02
0.450125      	3.945494e+02
0.45025       	3.945506e+02
0.450375      	3.945519e+02
0.4505        	3.945533e+02
0.450625      	3.945547e+02
0.45075       	3.945561e+02
0.450875      	3.945577e+02
0.451         	3.945592e+02
0.451125      	3.945609e+02
0.45125       	3.945626e+02
0.451375      	3.945643e+02
0.4515        	3.945661e+02
0.451625      	3.945679e+02
0.45175       	3.945698e+02
0.451875      	3.945717e+02
0.452         	3.945737e+02
0.452125      	3.945756e+02
0.45225       	3.945776e+02
0.452375      	3.945795e+02
0.4525        	3.945815e+02
0.452625      	3.945834e+02
0.45275       	3.945853e+02
0.452875      	3.945872e+02
0.453         	3.945891e+02
0.453125      	3.945909e+02
0.45325       	3.945926e+02
0.453375      	3.945943e+02
0.4535        	3.945959e+02
0.453625      	3.945975e+02
0.45375       	3.945990e+02
0.453875      	3.946005e+02
0.454         	3.946019e+02
0.454125      	3.946032e+02
0.45425       	3.946044e+02
0.454375      	3.946056e+02
0.4545        	3.946067e+02
0.454625      	3.946077e+02
0.45475       	3.946086e+02
0.454875      	3.946094e+02
0.455         	3.946102e+02
0.455125      	3.946110e+02
0.45525       	3.946117e+02
0.455375      	3.946123e+02
0.4555        	3.946130e+02
0.455625      	3.946136e+02
0.45575       	3.946141e+02
0.455875      	3.946146e+02
0.456         	3.946151e+02
0.456125      	3.946156e+02
0.45625       	3.946160e+02
0.456375      	3.946165e+02
0.4565        	3.946169e+02
0.456625      	3.946173e+02
0.45675       	3.946177e+02
0.456875      	3.946181e+02
0.457         	3.946184e+02
0.457125      	3.946188e+02
0.45725       	3.946192e+02
0.457375      	3.946195e+02
0.4575        	3.946198e+02
0.457625      	3.946202e+02
0.45775       	3.946205e+02
0.457875      	3.946208e+02
0.458         	3.946211e+02
0.458125      	3.946214e+02
0.45825       	3.946217e+02
0.458375      	3.946220e+02
0.4585        	3.946223e+02
0.458625      	3.946226e+02
0.45875       	3.946229e+02
0.458875      	3.946233e+02
0.459         	3.946236e+02
0.459125      	3.946239e+02
0.45925       	3.946243e+02
0.459375      	3.946247e+02
0.4595        	3.946250e+02
0.459625      	3.946254e+02
0.45975       	3.946259e+02
0.459875      	3.946264e+02
0.46          	3.946269e+02
0.460125      	3.946274e+02
0.46025       	3.946281e+02
0.460375      	3.946287e+02
0.4605        	3.946295e+02
0.460625      	3.946303e+02
0.46075       	3.946312e+02
0.460875      	3.946321e+02
0.461         	3.946331e+02
0.461125      	3.946341e+02
0.46125       	3.946352e+02
0.461375      	3.946364e+02
0.4615        	3.946376e+02
0.461625      	3.946389e+02
0.46175       	3.946402e+02
0.461875      	3.946416e+02
0.462         	3.946430e+02
0.462125      	3.946445e+02
0.46225       	3.946460e+02
0.462375      	3.946475e+02
0.4625        	3.946491e+02
0.462625      	3.946507e+02
0.46275       	3.946524e+02
0.462875      	3.946540e+02
0.463         	3.946556e+02
0.463125      	3.946572e+02
0.46325       	3.946588e+02
0.463375      	3.946604e+02
0.4635        	3.946619e+02
0.463625      	3.946634e+02
0.46375       	3.946649e+02
0.463875      	3.946663e+02
0.464         	3.946676e+02
0.464125      	3.946689e+02
0.46425       	3.946702e+02
0.464375      	3.946714e+02
0.4645        	3.946726e+02
0.464625      	3.946736e+02
0.46475       	3.946746e+02
0.464875      	3.946756e+02
0.465         	3.946764e+02
0.465125      	3.946772e+02
0.46525       	3.946779e+02
0.465375      	3.946785e+02
0.4655        	3.946790e+02
0.465625      	3.946795e+02
0.46575       	3.946799e+02
0.465875      	3.946802e+02
0.466         	3.946805e+02
0.466125      	3.946808e+02
0.46625       	3.946810e+02
0.466375      	3.946812e+02
0.4665        	3.946814e+02
0.466625      	3.946815e+02
0.46675       	3.946816e+02
0.466875      	3.946818e+02
0.467         	3.946819e+02
0.467125      	3.946819e+02
0.46725       	3.946820e+02
0.467375      	3.946821e+02
0.4675        	3.946822e+02
0.467625      	3.946823e+02
0.46775       	3.946824e+02
0.467875      	3.946825e+02
0.468         	3.946827e+02
0.468125      	3.946828e+02
0.46825       	3.946829e+02
0.468375      	3.946831e+02
0.4685        	3.946832e+02
0.468625      	3.946833e+02
0.46875       	3.946835e+02
0.468875      	3.946836e+02
0.469         	3.946838e+02
0.469125      	3.946839e+02
0.46925       	3.946841e+02
0.469375      	3.946843e+02
0.4695        	3.946845e+02
0.469625      	3.946848e+02
0.46975       	3.946850e+02
0.469875      	3.946853e+02
0.47          	3.946857e+02
0.470125      	3.946861e+02
0.47025       	3.946865e+02
0.470375      	3.946870e+02
0.4705        	3.946875e+02
0.470625      	3.946881e+02
0.47075       	3.946888e+02
0.470875      	3.946895e+02
0.471         	3.946903e+02
0.471125      	3.946912e+02
0.47125       	3.946922e+02
0.471375      	3.946933e+02
0.4715        	3.946944e+02
0.471625      	3.946956e+02
0.47175       	3.946969e+02
0.471875      	3.946983e+02
0.472         	3.946997e+02
0.472125      	3.947013e+02
0.47225       	3.947029e+02
0.472375      	3.947046e+02
0.4725        	3.947064e+02
0.472625      	3.947082e+02
0.47275       	3.947101e+02
0.472875      	3.947120e+02
0.473         	3.947139e+02
0.473125      	3.947159e+02
0.47325       	3.947180e+02
0.473375      	3.947201e+02
0.4735        	3.947222e+02
0.473625      	3.947242e+02
0.47375       	3.947263e+02
0.473875      	3.947283e+02
0.474         	3.947303e+02
0.474125      	3.947323e+02
0.47425       	3.947342e+02
0.474375      	3.947361e+02
0.4745        	3.947379e+02
0.474625      	3.947397e+02
0.47475       	3.947415e+02
0.474875      	3.947432e+02
0.475         	3.947448e+02
0.475125      	3.947463e+02
0.47525       	3.947478e+02
0.475375      	3.947492e+02
0.4755        	3.947505e+02
0.475625      	3.947517e+02
0.47575       	3.947528e+02
0.475875      	3.947538e+02
0.476         	3.947548e+02
0.476125      	3.947556e+02
0.47625       	3.947564e+02
0.476375      	3.947570e+02
0.4765        	3.947576e+02
0.476625      	3.947581e+02
0.47675       	3.947585e+02
0.476875      	3.947589e+02
0.477         	3.947593e+02
0.477125      	3.947596e+02
0.47725       	3.947599e+02
0.477375      	3.947601e+02
0.4775        	3.947604e+02
0.477625      	3.947606e+02
0.47775       	3.947607e+02
0.477875      	3.947609e+02
0.478         	3.947610e+02
0.478125      	3.947611e+02
0.47825       	3.947612e+02
0.478375      	3.947613e+02
0.4785        	3.947614e+02
0.478625      	3.947615e+02
0.47875       	3.947616e+02
0.478875      	3.947617e+02
0.479         	3.947618e+02
0.479125      	3.947618e+02
0.47925       	3.947618e+02
0.479375      	3.947618e+02
0.4795        	3.947617e+02
0.479625      	3.947617e+02
0.47975       	3.947616e+02
0.479875      	3.947615e+02
0.48          	3.947614e+02
0.480125      	3.947613e+02
0.48025       	3.947612e+02
0.480375      	3.947611e+02
0.4805        	3.947611e+02
0.480625      	3.947611e+02
0.48075       	3.947611e+02
0.480875      	3.947611e+02
0.481         	3.947612e+02
0.481125      	3.947614e+02
0.48125       	3.947616e+02
0.481375      	3.947618e+02
0.4815        	3.947622e+02
0.481625      	3.947626e+02
0.48175       	3.947630e+02
0.481875      	3.947636e+02
0.482         	3.947642e+02
0.482125      	3.947649e+02
0.48225       	3.947657e+02
0.482375      	3.947666e+02
0.4825        	3.947676e+02
0.482625      	3.947687e+02
0.48275       	3.947698e+02
0.482875      	3.947710e+02
0.483         	3.947723e+02
0.483125      	3.947737e+02
0.48325       	3.947751e+02
0.483375      	3.947766e+02
0.4835        	3.947781e+02
0.483625      	3.947797e+02
0.48375       	3.947813e+02
0.483875      	3.947829e+02
0.484         	3.947846e+02
0.484125      	3.947862e+02
0.48425       	3.947878e+02
0.484375      	3.947894e+02
0.4845        	3.947910e+02
0.484625      	3.947926e+02
0.48475       	3.947941e+02
0.484875      	3.947956e+02
0.485         	3.947970e+02
0.485125      	3.947984e+02
0.48525       	3.947997e+02
0.485375      	3.948010e+02
0.4855        	3.948022e+02
0.485625      	3.948034e+02
0.48575       	3.948045e+02
0.485875      	3.948055e+02
0.486         	3.948064e+02
0.486125      	3.948073e+02
0.48625       	3.948080e+02
0.486375      	3.948087e+02
0.4865        	3.948092e+02
0.486625      	3.948096e+02
0.48675       	3.948100e+02
0.486875      	3.948103e+02
0.487         	3.948105e+02
0.487125      	3.948105e+02
0.48725       	3.948105e+02
0.487375      	3.948104e+02
0.4875        	3.948102e+02
0.487625      	3.948099e+02
0.48775       	3.948097e+02
0.487875      	3.948094e+02
0.488         	3.948091e+02
0.488125      	3.948088e+02
0.48825       	3.948084e+02
0.488375      	3.948081e+02
0.4885        	3.948077e+02
0.488625      	3.948074e+02
0.48875       	3.948070e+02
0.488875      	3.948066e+02
0.489         	3.948063e+02
0.489125      	3.948059e+02
0.48925       	3.948056e+02
0.489375      	3.948053e+02
0.4895        	3.948050e+02
0.489625      	3.948047e+02
0.48975       	3.948043e+02
0.489875      	3.948040e+02
0.49          	3.948037e+02
0.490125      	3.948033e+02
0.49025       	3.948029e+02
0.490375      	3.948025e+02
0.4905        	3.948021e+02
0.490625      	3.948017e+02
0.49075       	3.948014e+02
0.490875      	3.948010e+02
0.491         	3.948007e+02
0.491125      	3.948005e+02
0.49125       	3.948003e+02
0.491375      	3.948002e+02
0.4915        	3.948002e+02
0.491625      	3.948002e+02
0.49175       	3.948003e+02
0.491875      	3.948005e+02
0.492         	3.948009e+02
0.492125      	3.948013e+02
0.49225       	3.948018e+02
0.492375      	3.948024e+02
0.4925        	3.948031e+02
0.492625      	3.948039e+02
0.49275       	3.948049e+02
0.492875      	3.948060e+02
0.493         	3.948072e+02
0.493125      	3.948085e+02
0.49325       	3.948099e+02
0.493375      	3.948115e+02
0.4935        	3.948131e+02
0.493625      	3.948149e+02
0.49375       	3.948167e+02
0.493875      	3.948186e+02
0.494         	3.948206e+02
0.494125      	3.948226e+02
0.49425       	3.948247e+02
0.494375      	3.948268e+02
0.4945        	3.948290e+02
0.494625      	3.948311e+02
0.49475       	3.948332e+02
0.494875      	3.948354e+02
0.495         	3.948375e+02
0.495125      	3.948397e+02
0.49525       	3.948418e+02
0.495375      	3.948439e+02
0.4955        	3.948460e+02
0.495625      	3.948479e+02
0.49575       	3.948499e+02
0.495875      	3.948517e+02
0.496         	3.948535e+02
0.496125      	3.948552e+02
0.49625       	3.948569e+02
0.496375      	3.948584e+02
0.4965        	3.948600e+02
0.496625      	3.948614e+02
0.49675       	3.948627e+02
0.496875      	3.948639e+02
0.497         	3.948650e+02
0.497125      	3.948660e+02
0.49725       	3.948668e+02
0.497375      	3.948676e+02
0.4975        	3.948682e+02
0.497625      	3.948688e+02
0.49775       	3.948692e+02
0.497875      	3.948695e+02
0.498         	3.948696e+02
0.498125      	3.948696e+02
0.49825       	3.948695e+02
0.498375      	3.948694e+02
0.4985        	3.948692e+02
0.498625      	3.948689e+02
0.49875       	3.948687e+02
0.498875      	3.948684e+02
0.499         	3.948682e+02
0.499125      	3.948679e+02
0.49925       	3.948676e+02
0.499375      	3.948674e+02
0.4995        	3.948671e+02
0.499625      	3.948668e+02
0.49975       	3.948665e+02
0.499875      	3.948663e+02
0.5           	3.948660e+02
